%OpenBCI Raw EXG Data
%Number of channels = 8
%Sample Rate = 250 Hz
%Board = OpenBCI_GUI$BoardCytonSerial
Sample Index, EXG Channel 0, EXG Channel 1, EXG Channel 2, EXG Channel 3, EXG Channel 4, EXG Channel 5, EXG Channel 6, EXG Channel 7, Accel Channel 0, Accel Channel 1, Accel Channel 2, Other, Other, Other, Other, Other, Other, Other, Analog Channel 0, Analog Channel 1, Analog Channel 2, Timestamp, Other, Timestamp (Formatted)
0.0, 0.0, 0.0, 0.0, 0.0, 0.0, 0.0, 0.0, 0.0, 0.078, 0.028, 0.978, 192.0, 2.0, 112.0, 0.0, 224.0, 30.0, 144.0, 0.0, 0.0, 0.0, 1.740936389940738E9, 0.0, 2025-03-02 19:26:29.940
1.0, 5222.1498158156655, 0.0, 0.0, 0.0, 0.0, 0.0, 0.0, 0.0, 0.078, 0.028, 0.978, 192.0, 0.0, 0.0, 0.0, 0.0, 0.0, 0.0, 0.0, 0.0, 0.0, 1.740936389998259E9, 0.0, 2025-03-02 19:26:29.998
2.0, 5177.982768771979, 0.0, 0.0, 0.0, 0.0, 0.0, 0.0, 0.0, 0.078, 0.028, 0.978, 192.0, 0.0, 0.0, 0.0, 0.0, 0.0, 0.0, 0.0, 0.0, 0.0, 1.740936389998326E9, 0.0, 2025-03-02 19:26:29.998
3.0, 5119.9576401660015, 0.0, 0.0, 0.0, 0.0, 0.0, 0.0, 0.0, 0.078, 0.028, 0.978, 192.0, 0.0, 0.0, 0.0, 0.0, 0.0, 0.0, 0.0, 0.0, 0.0, 1.740936389998371E9, 0.0, 2025-03-02 19:26:29.998
4.0, 5141.661184032105, 0.0, 0.0, 0.0, 0.0, 0.0, 0.0, 0.0, 0.078, 0.028, 0.978, 192.0, 0.0, 0.0, 0.0, 0.0, 0.0, 0.0, 0.0, 0.0, 0.0, 1.740936389998414E9, 0.0, 2025-03-02 19:26:29.998
5.0, 5193.606638146239, 0.0, 0.0, 0.0, 0.0, 0.0, 0.0, 0.0, 0.078, 0.028, 0.978, 192.0, 0.0, 0.0, 0.0, 0.0, 0.0, 0.0, 0.0, 0.0, 0.0, 1.740936389998456E9, 0.0, 2025-03-02 19:26:29.998
6.0, 5243.249862581475, 0.0, 0.0, 0.0, 0.0, 0.0, 0.0, 0.0, 0.078, 0.028, 0.978, 192.0, 0.0, 0.0, 0.0, 0.0, 0.0, 0.0, 0.0, 0.0, 0.0, 1.740936389998498E9, 0.0, 2025-03-02 19:26:29.998
7.0, 5234.46562701054, 0.0, 0.0, 0.0, 0.0, 0.0, 0.0, 0.0, 0.07200000000000001, 0.03, 0.978, 192.0, 2.0, 64.0, 0.0, 240.0, 30.0, 144.0, 0.0, 0.0, 0.0, 1.740936389998551E9, 0.0, 2025-03-02 19:26:29.998
8.0, 5137.8613874747025, 0.0, 0.0, 0.0, 0.0, 0.0, 0.0, 0.0, 0.07200000000000001, 0.03, 0.978, 192.0, 0.0, 0.0, 0.0, 0.0, 0.0, 0.0, 0.0, 0.0, 0.0, 1.740936389998596E9, 0.0, 2025-03-02 19:26:29.998
9.0, 5139.269547375387, 0.0, 0.0, 0.0, 0.0, 0.0, 0.0, 0.0, 0.07200000000000001, 0.03, 0.978, 192.0, 0.0, 0.0, 0.0, 0.0, 0.0, 0.0, 0.0, 0.0, 0.0, 1.740936389998638E9, 0.0, 2025-03-02 19:26:29.998
10.0, 5232.901004898668, 0.0, 0.0, 0.0, 0.0, 0.0, 0.0, 0.0, 0.07200000000000001, 0.03, 0.978, 192.0, 0.0, 0.0, 0.0, 0.0, 0.0, 0.0, 0.0, 0.0, 0.0, 1.74093638999868E9, 0.0, 2025-03-02 19:26:29.998
11.0, 5249.843627195791, 0.0, 0.0, 0.0, 0.0, 0.0, 0.0, 0.0, 0.07200000000000001, 0.03, 0.978, 192.0, 0.0, 0.0, 0.0, 0.0, 0.0, 0.0, 0.0, 0.0, 0.0, 1.740936389998722E9, 0.0, 2025-03-02 19:26:29.998
12.0, 5235.247938066475, 0.0, 0.0, 0.0, 0.0, 0.0, 0.0, 0.0, 0.07200000000000001, 0.03, 0.978, 192.0, 0.0, 0.0, 0.0, 0.0, 0.0, 0.0, 0.0, 0.0, 0.0, 1.740936389998761E9, 0.0, 2025-03-02 19:26:29.998
13.0, 5158.0673644623, 0.0, 0.0, 0.0, 0.0, 0.0, 0.0, 0.0, 0.07200000000000001, 0.03, 0.978, 192.0, 0.0, 0.0, 0.0, 0.0, 0.0, 0.0, 0.0, 0.0, 0.0, 1.740936389998801E9, 0.0, 2025-03-02 19:26:29.998
14.0, 5126.35023908022, 0.0, 0.0, 0.0, 0.0, 0.0, 0.0, 0.0, 0.07200000000000001, 0.03, 0.978, 192.0, 0.0, 0.0, 0.0, 0.0, 0.0, 0.0, 0.0, 0.0, 0.0, 1.740936389998833E9, 0.0, 2025-03-02 19:26:29.998
15.0, 5241.394667791685, 0.0, 0.0, 0.0, 0.0, 0.0, 0.0, 0.0, 0.07200000000000001, 0.03, 0.978, 192.0, 0.0, 0.0, 0.0, 0.0, 0.0, 0.0, 0.0, 0.0, 0.0, 1.740936389998856E9, 0.0, 2025-03-02 19:26:29.998
16.0, 5313.389636682229, 0.0, 0.0, 0.0, 0.0, 0.0, 0.0, 0.0, 0.07200000000000001, 0.03, 0.978, 192.0, 0.0, 0.0, 0.0, 0.0, 0.0, 0.0, 0.0, 0.0, 0.0, 1.740936390058542E9, 0.0, 2025-03-02 19:26:30.058
17.0, 5268.909665216168, 0.0, 0.0, 0.0, 0.0, 0.0, 0.0, 0.0, 0.07, 0.04, 0.982, 192.0, 2.0, 48.0, 1.0, 64.0, 30.0, 176.0, 0.0, 0.0, 0.0, 1.74093639005859E9, 0.0, 2025-03-02 19:26:30.058
18.0, 5131.49114030494, 0.0, 0.0, 0.0, 0.0, 0.0, 0.0, 0.0, 0.07, 0.04, 0.982, 192.0, 0.0, 0.0, 0.0, 0.0, 0.0, 0.0, 0.0, 0.0, 0.0, 1.740936390058691E9, 0.0, 2025-03-02 19:26:30.058
19.0, 5128.048971658823, 0.0, 0.0, 0.0, 0.0, 0.0, 0.0, 0.0, 0.07, 0.04, 0.982, 192.0, 0.0, 0.0, 0.0, 0.0, 0.0, 0.0, 0.0, 0.0, 0.0, 1.740936390058731E9, 0.0, 2025-03-02 19:26:30.058
20.0, 5198.389911459674, 0.0, 0.0, 0.0, 0.0, 0.0, 0.0, 0.0, 0.07, 0.04, 0.982, 192.0, 0.0, 0.0, 0.0, 0.0, 0.0, 0.0, 0.0, 0.0, 0.0, 1.74093639005879E9, 0.0, 2025-03-02 19:26:30.058
21.0, 5313.501395404505, 0.0, 0.0, 0.0, 0.0, 0.0, 0.0, 0.0, 0.07, 0.04, 0.982, 192.0, 0.0, 0.0, 0.0, 0.0, 0.0, 0.0, 0.0, 0.0, 0.0, 1.740936390058834E9, 0.0, 2025-03-02 19:26:30.058
22.0, 5296.8716975297575, 0.0, 0.0, 0.0, 0.0, 0.0, 0.0, 0.0, 0.07, 0.04, 0.982, 192.0, 0.0, 0.0, 0.0, 0.0, 0.0, 0.0, 0.0, 0.0, 0.0, 1.740936390058877E9, 0.0, 2025-03-02 19:26:30.058
23.0, 5232.923356643124, 0.0, 0.0, 0.0, 0.0, 0.0, 0.0, 0.0, 0.07, 0.04, 0.982, 192.0, 0.0, 0.0, 0.0, 0.0, 0.0, 0.0, 0.0, 0.0, 0.0, 1.74093639005892E9, 0.0, 2025-03-02 19:26:30.058
24.0, 5261.511237801461, 0.0, 0.0, 0.0, 0.0, 0.0, 0.0, 0.0, 0.07, 0.04, 0.982, 192.0, 0.0, 0.0, 0.0, 0.0, 0.0, 0.0, 0.0, 0.0, 0.0, 1.740936390058963E9, 0.0, 2025-03-02 19:26:30.058
25.0, 5307.444072657117, 0.0, 0.0, 0.0, 0.0, 0.0, 0.0, 0.0, 0.07, 0.04, 0.982, 192.0, 0.0, 0.0, 0.0, 0.0, 0.0, 0.0, 0.0, 0.0, 0.0, 1.740936390059006E9, 0.0, 2025-03-02 19:26:30.059
26.0, 5380.377814814784, 0.0, 0.0, 0.0, 0.0, 0.0, 0.0, 0.0, 0.07, 0.04, 0.982, 192.0, 0.0, 0.0, 0.0, 0.0, 0.0, 0.0, 0.0, 0.0, 0.0, 1.740936390059049E9, 0.0, 2025-03-02 19:26:30.059
27.0, 5339.742343395036, 0.0, 0.0, 0.0, 0.0, 0.0, 0.0, 0.0, 0.07200000000000001, 0.034, 0.984, 192.0, 2.0, 64.0, 1.0, 16.0, 30.0, 192.0, 0.0, 0.0, 0.0, 1.740936390059092E9, 0.0, 2025-03-02 19:26:30.059
28.0, 5153.172332426588, 0.0, 0.0, 0.0, 0.0, 0.0, 0.0, 0.0, 0.07200000000000001, 0.034, 0.984, 192.0, 0.0, 0.0, 0.0, 0.0, 0.0, 0.0, 0.0, 0.0, 0.0, 1.740936390059142E9, 0.0, 2025-03-02 19:26:30.059
29.0, 5185.35884444223, 0.0, 0.0, 0.0, 0.0, 0.0, 0.0, 0.0, 0.07200000000000001, 0.034, 0.984, 192.0, 0.0, 0.0, 0.0, 0.0, 0.0, 0.0, 0.0, 0.0, 0.0, 1.740936390059166E9, 0.0, 2025-03-02 19:26:30.059
30.0, 5316.451825672606, 0.0, 0.0, 0.0, 0.0, 0.0, 0.0, 0.0, 0.07200000000000001, 0.034, 0.984, 192.0, 0.0, 0.0, 0.0, 0.0, 0.0, 0.0, 0.0, 0.0, 0.0, 1.740936390059189E9, 0.0, 2025-03-02 19:26:30.059
31.0, 5429.55165261646, 0.0, 0.0, 0.0, 0.0, 0.0, 0.0, 0.0, 0.07200000000000001, 0.034, 0.984, 192.0, 0.0, 0.0, 0.0, 0.0, 0.0, 0.0, 0.0, 0.0, 0.0, 1.740936390117864E9, 0.0, 2025-03-02 19:26:30.117
32.0, 5371.638282732759, 0.0, 0.0, 0.0, 0.0, 0.0, 0.0, 0.0, 0.07200000000000001, 0.034, 0.984, 192.0, 0.0, 0.0, 0.0, 0.0, 0.0, 0.0, 0.0, 0.0, 0.0, 1.74093639011791E9, 0.0, 2025-03-02 19:26:30.117
33.0, 5139.269547375387, 0.0, 0.0, 0.0, 0.0, 0.0, 0.0, 0.0, 0.07200000000000001, 0.034, 0.984, 192.0, 0.0, 0.0, 0.0, 0.0, 0.0, 0.0, 0.0, 0.0, 0.0, 1.740936390117935E9, 0.0, 2025-03-02 19:26:30.117
34.0, 5141.415314843097, 0.0, 0.0, 0.0, 0.0, 0.0, 0.0, 0.0, 0.07200000000000001, 0.034, 0.984, 192.0, 0.0, 0.0, 0.0, 0.0, 0.0, 0.0, 0.0, 0.0, 0.0, 1.740936390117959E9, 0.0, 2025-03-02 19:26:30.117
35.0, 5318.9999245405115, 0.0, 0.0, 0.0, 0.0, 0.0, 0.0, 0.0, 0.07200000000000001, 0.034, 0.984, 192.0, 0.0, 0.0, 0.0, 0.0, 0.0, 0.0, 0.0, 0.0, 0.0, 1.740936390117982E9, 0.0, 2025-03-02 19:26:30.117
36.0, 5381.2271811040855, 0.0, 0.0, 0.0, 0.0, 0.0, 0.0, 0.0, 0.07200000000000001, 0.034, 0.984, 192.0, 0.0, 0.0, 0.0, 0.0, 0.0, 0.0, 0.0, 0.0, 0.0, 1.740936390118067E9, 0.0, 2025-03-02 19:26:30.118
37.0, 5307.555831379394, 0.0, 0.0, 0.0, 0.0, 0.0, 0.0, 0.0, 0.068, 0.032, 0.986, 192.0, 2.0, 32.0, 1.0, 0.0, 30.0, 208.0, 0.0, 0.0, 0.0, 1.740936390118114E9, 0.0, 2025-03-02 19:26:30.118
38.0, 5109.34056154973, 0.0, 0.0, 0.0, 0.0, 0.0, 0.0, 0.0, 0.068, 0.032, 0.986, 192.0, 0.0, 0.0, 0.0, 0.0, 0.0, 0.0, 0.0, 0.0, 0.0, 1.740936390118166E9, 0.0, 2025-03-02 19:26:30.118
39.0, 5154.446381860541, 0.0, 0.0, 0.0, 0.0, 0.0, 0.0, 0.0, 0.068, 0.032, 0.986, 192.0, 0.0, 0.0, 0.0, 0.0, 0.0, 0.0, 0.0, 0.0, 0.0, 1.74093639011821E9, 0.0, 2025-03-02 19:26:30.118
40.0, 5340.7258201510695, 0.0, 0.0, 0.0, 0.0, 0.0, 0.0, 0.0, 0.068, 0.032, 0.986, 192.0, 0.0, 0.0, 0.0, 0.0, 0.0, 0.0, 0.0, 0.0, 0.0, 1.740936390118253E9, 0.0, 2025-03-02 19:26:30.118
41.0, 5376.06392813491, 0.0, 0.0, 0.0, 0.0, 0.0, 0.0, 0.0, 0.068, 0.032, 0.986, 192.0, 0.0, 0.0, 0.0, 0.0, 0.0, 0.0, 0.0, 0.0, 0.0, 1.740936390118296E9, 0.0, 2025-03-02 19:26:30.118
42.0, 5323.269107731475, 0.0, 0.0, 0.0, 0.0, 0.0, 0.0, 0.0, 0.068, 0.032, 0.986, 192.0, 0.0, 0.0, 0.0, 0.0, 0.0, 0.0, 0.0, 0.0, 0.0, 1.740936390118339E9, 0.0, 2025-03-02 19:26:30.118
43.0, 5100.265753300876, 0.0, 0.0, 0.0, 0.0, 0.0, 0.0, 0.0, 0.068, 0.032, 0.986, 192.0, 0.0, 0.0, 0.0, 0.0, 0.0, 0.0, 0.0, 0.0, 0.0, 1.740936390118382E9, 0.0, 2025-03-02 19:26:30.118
44.0, 5145.170407911588, 0.0, 0.0, 0.0, 0.0, 0.0, 0.0, 0.0, 0.068, 0.032, 0.986, 192.0, 0.0, 0.0, 0.0, 0.0, 0.0, 0.0, 0.0, 0.0, 0.0, 1.740936390118425E9, 0.0, 2025-03-02 19:26:30.118
45.0, 5295.776462051447, 0.0, 0.0, 0.0, 0.0, 0.0, 0.0, 0.0, 0.068, 0.032, 0.986, 192.0, 0.0, 0.0, 0.0, 0.0, 0.0, 0.0, 0.0, 0.0, 0.0, 1.740936390118469E9, 0.0, 2025-03-02 19:26:30.118
46.0, 5318.776407095958, 0.0, 0.0, 0.0, 0.0, 0.0, 0.0, 0.0, 0.068, 0.032, 0.986, 192.0, 0.0, 0.0, 0.0, 0.0, 0.0, 0.0, 0.0, 0.0, 0.0, 1.740936390177746E9, 0.0, 2025-03-02 19:26:30.177
47.0, 5264.193447136098, 0.0, 0.0, 0.0, 0.0, 0.0, 0.0, 0.0, 0.07200000000000001, 0.028, 0.978, 192.0, 2.0, 64.0, 0.0, 224.0, 30.0, 144.0, 0.0, 0.0, 0.0, 1.740936390177797E9, 0.0, 2025-03-02 19:26:30.177
48.0, 5166.002233743934, 0.0, 0.0, 0.0, 0.0, 0.0, 0.0, 0.0, 0.07200000000000001, 0.028, 0.978, 192.0, 0.0, 0.0, 0.0, 0.0, 0.0, 0.0, 0.0, 0.0, 0.0, 1.740936390177824E9, 0.0, 2025-03-02 19:26:30.177
49.0, 5220.719304170526, 0.0, 0.0, 0.0, 0.0, 0.0, 0.0, 0.0, 0.07200000000000001, 0.028, 0.978, 192.0, 0.0, 0.0, 0.0, 0.0, 0.0, 0.0, 0.0, 0.0, 0.0, 1.740936390177848E9, 0.0, 2025-03-02 19:26:30.177
50.0, 5340.703468406614, 0.0, 0.0, 0.0, 0.0, 0.0, 0.0, 0.0, 0.07200000000000001, 0.028, 0.978, 192.0, 0.0, 0.0, 0.0, 0.0, 0.0, 0.0, 0.0, 0.0, 0.0, 1.740936390177871E9, 0.0, 2025-03-02 19:26:30.177
51.0, 5402.170765658709, 0.0, 0.0, 0.0, 0.0, 0.0, 0.0, 0.0, 0.07200000000000001, 0.028, 0.978, 192.0, 0.0, 0.0, 0.0, 0.0, 0.0, 0.0, 0.0, 0.0, 0.0, 1.740936390177894E9, 0.0, 2025-03-02 19:26:30.177
52.0, 5325.951317066111, 0.0, 0.0, 0.0, 0.0, 0.0, 0.0, 0.0, 0.07200000000000001, 0.028, 0.978, 192.0, 0.0, 0.0, 0.0, 0.0, 0.0, 0.0, 0.0, 0.0, 0.0, 1.740936390177917E9, 0.0, 2025-03-02 19:26:30.177
53.0, 5123.735084978948, 0.0, 0.0, 0.0, 0.0, 0.0, 0.0, 0.0, 0.07200000000000001, 0.028, 0.978, 192.0, 0.0, 0.0, 0.0, 0.0, 0.0, 0.0, 0.0, 0.0, 0.0, 1.740936390177939E9, 0.0, 2025-03-02 19:26:30.177
54.0, 5198.971056815512, 0.0, 0.0, 0.0, 0.0, 0.0, 0.0, 0.0, 0.07200000000000001, 0.028, 0.978, 192.0, 0.0, 0.0, 0.0, 0.0, 0.0, 0.0, 0.0, 0.0, 0.0, 1.740936390178015E9, 0.0, 2025-03-02 19:26:30.178
55.0, 5383.261189849519, 0.0, 0.0, 0.0, 0.0, 0.0, 0.0, 0.0, 0.07200000000000001, 0.028, 0.978, 192.0, 0.0, 0.0, 0.0, 0.0, 0.0, 0.0, 0.0, 0.0, 0.0, 1.740936390178038E9, 0.0, 2025-03-02 19:26:30.178
56.0, 5447.455399925161, 0.0, 0.0, 0.0, 0.0, 0.0, 0.0, 0.0, 0.07200000000000001, 0.026000000000000002, 0.984, 192.0, 2.0, 64.0, 0.0, 208.0, 30.0, 192.0, 0.0, 0.0, 0.0, 1.740936390178061E9, 0.0, 2025-03-02 19:26:30.178
57.0, 5396.001684189044, 0.0, 0.0, 0.0, 0.0, 0.0, 0.0, 0.0, 0.07200000000000001, 0.026000000000000002, 0.984, 192.0, 0.0, 0.0, 0.0, 0.0, 0.0, 0.0, 0.0, 0.0, 0.0, 1.740936390178085E9, 0.0, 2025-03-02 19:26:30.178
58.0, 5181.73786184047, 0.0, 0.0, 0.0, 0.0, 0.0, 0.0, 0.0, 0.07200000000000001, 0.026000000000000002, 0.984, 192.0, 0.0, 0.0, 0.0, 0.0, 0.0, 0.0, 0.0, 0.0, 0.0, 1.740936390178108E9, 0.0, 2025-03-02 19:26:30.178
59.0, 5233.0351153654, 0.0, 0.0, 0.0, 0.0, 0.0, 0.0, 0.0, 0.07200000000000001, 0.026000000000000002, 0.984, 192.0, 0.0, 0.0, 0.0, 0.0, 0.0, 0.0, 0.0, 0.0, 0.0, 1.74093639017813E9, 0.0, 2025-03-02 19:26:30.178
60.0, 5370.1854193431645, 0.0, 0.0, 0.0, 0.0, 0.0, 0.0, 0.0, 0.07200000000000001, 0.026000000000000002, 0.984, 192.0, 0.0, 0.0, 0.0, 0.0, 0.0, 0.0, 0.0, 0.0, 0.0, 1.740936390178153E9, 0.0, 2025-03-02 19:26:30.178
61.0, 5367.458506519617, 0.0, 0.0, 0.0, 0.0, 0.0, 0.0, 0.0, 0.07200000000000001, 0.026000000000000002, 0.984, 192.0, 0.0, 0.0, 0.0, 0.0, 0.0, 0.0, 0.0, 0.0, 0.0, 1.740936390238061E9, 0.0, 2025-03-02 19:26:30.238
62.0, 5383.2164863606085, 0.0, 0.0, 0.0, 0.0, 0.0, 0.0, 0.0, 0.07200000000000001, 0.026000000000000002, 0.984, 192.0, 0.0, 0.0, 0.0, 0.0, 0.0, 0.0, 0.0, 0.0, 0.0, 1.740936390238106E9, 0.0, 2025-03-02 19:26:30.238
63.0, 5245.46268528255, 0.0, 0.0, 0.0, 0.0, 0.0, 0.0, 0.0, 0.07200000000000001, 0.026000000000000002, 0.984, 192.0, 0.0, 0.0, 0.0, 0.0, 0.0, 0.0, 0.0, 0.0, 0.0, 1.740936390238131E9, 0.0, 2025-03-02 19:26:30.238
64.0, 5223.714437927537, 0.0, 0.0, 0.0, 0.0, 0.0, 0.0, 0.0, 0.07200000000000001, 0.026000000000000002, 0.984, 192.0, 0.0, 0.0, 0.0, 0.0, 0.0, 0.0, 0.0, 0.0, 0.0, 1.740936390238155E9, 0.0, 2025-03-02 19:26:30.238
65.0, 5322.978535053556, 0.0, 0.0, 0.0, 0.0, 0.0, 0.0, 0.0, 0.07200000000000001, 0.026000000000000002, 0.984, 192.0, 0.0, 0.0, 0.0, 0.0, 0.0, 0.0, 0.0, 0.0, 0.0, 1.740936390238178E9, 0.0, 2025-03-02 19:26:30.238
66.0, 5409.412730862228, 0.0, 0.0, 0.0, 0.0, 0.0, 0.0, 0.0, 0.076, 0.03, 0.98, 192.0, 2.0, 96.0, 0.0, 240.0, 30.0, 160.0, 0.0, 0.0, 0.0, 1.740936390238201E9, 0.0, 2025-03-02 19:26:30.238
67.0, 5370.25247457653, 0.0, 0.0, 0.0, 0.0, 0.0, 0.0, 0.0, 0.076, 0.03, 0.98, 192.0, 0.0, 0.0, 0.0, 0.0, 0.0, 0.0, 0.0, 0.0, 0.0, 1.740936390238225E9, 0.0, 2025-03-02 19:26:30.238
68.0, 5173.914751281113, 0.0, 0.0, 0.0, 0.0, 0.0, 0.0, 0.0, 0.076, 0.03, 0.98, 192.0, 0.0, 0.0, 0.0, 0.0, 0.0, 0.0, 0.0, 0.0, 0.0, 1.74093639023825E9, 0.0, 2025-03-02 19:26:30.238
69.0, 5191.103242767244, 0.0, 0.0, 0.0, 0.0, 0.0, 0.0, 0.0, 0.076, 0.03, 0.98, 192.0, 0.0, 0.0, 0.0, 0.0, 0.0, 0.0, 0.0, 0.0, 0.0, 1.740936390238309E9, 0.0, 2025-03-02 19:26:30.238
70.0, 5269.826086738835, 0.0, 0.0, 0.0, 0.0, 0.0, 0.0, 0.0, 0.076, 0.03, 0.98, 192.0, 0.0, 0.0, 0.0, 0.0, 0.0, 0.0, 0.0, 0.0, 0.0, 1.740936390238334E9, 0.0, 2025-03-02 19:26:30.238
71.0, 5298.302209174897, 0.0, 0.0, 0.0, 0.0, 0.0, 0.0, 0.0, 0.076, 0.03, 0.98, 192.0, 0.0, 0.0, 0.0, 0.0, 0.0, 0.0, 0.0, 0.0, 0.0, 1.740936390238403E9, 0.0, 2025-03-02 19:26:30.238
72.0, 5292.915438761168, 0.0, 0.0, 0.0, 0.0, 0.0, 0.0, 0.0, 0.076, 0.03, 0.98, 192.0, 0.0, 0.0, 0.0, 0.0, 0.0, 0.0, 0.0, 0.0, 0.0, 1.740936390238426E9, 0.0, 2025-03-02 19:26:30.238
73.0, 5142.756419510415, 0.0, 0.0, 0.0, 0.0, 0.0, 0.0, 0.0, 0.076, 0.03, 0.98, 192.0, 0.0, 0.0, 0.0, 0.0, 0.0, 0.0, 0.0, 0.0, 0.0, 1.740936390238449E9, 0.0, 2025-03-02 19:26:30.238
74.0, 5217.232432035498, 0.0, 0.0, 0.0, 0.0, 0.0, 0.0, 0.0, 0.076, 0.03, 0.98, 192.0, 0.0, 0.0, 0.0, 0.0, 0.0, 0.0, 0.0, 0.0, 0.0, 1.740936390238471E9, 0.0, 2025-03-02 19:26:30.238
75.0, 5319.737532107536, 0.0, 0.0, 0.0, 0.0, 0.0, 0.0, 0.0, 0.076, 0.03, 0.98, 192.0, 0.0, 0.0, 0.0, 0.0, 0.0, 0.0, 0.0, 0.0, 0.0, 1.740936390238494E9, 0.0, 2025-03-02 19:26:30.238
76.0, 5298.235153941531, 0.0, 0.0, 0.0, 0.0, 0.0, 0.0, 0.0, 0.076, 0.03, 0.986, 192.0, 2.0, 96.0, 0.0, 240.0, 30.0, 208.0, 0.0, 0.0, 0.0, 1.740936390298338E9, 0.0, 2025-03-02 19:26:30.298
77.0, 5349.510055722005, 0.0, 0.0, 0.0, 0.0, 0.0, 0.0, 0.0, 0.076, 0.03, 0.986, 192.0, 0.0, 0.0, 0.0, 0.0, 0.0, 0.0, 0.0, 0.0, 0.0, 1.740936390298416E9, 0.0, 2025-03-02 19:26:30.298
78.0, 5219.55701345885, 0.0, 0.0, 0.0, 0.0, 0.0, 0.0, 0.0, 0.076, 0.03, 0.986, 192.0, 0.0, 0.0, 0.0, 0.0, 0.0, 0.0, 0.0, 0.0, 0.0, 1.740936390298463E9, 0.0, 2025-03-02 19:26:30.298
79.0, 5242.288737569897, 0.0, 0.0, 0.0, 0.0, 0.0, 0.0, 0.0, 0.076, 0.03, 0.986, 192.0, 0.0, 0.0, 0.0, 0.0, 0.0, 0.0, 0.0, 0.0, 0.0, 1.740936390298511E9, 0.0, 2025-03-02 19:26:30.298
80.0, 5286.344025891308, 0.0, 0.0, 0.0, 0.0, 0.0, 0.0, 0.0, 0.076, 0.03, 0.986, 192.0, 0.0, 0.0, 0.0, 0.0, 0.0, 0.0, 0.0, 0.0, 0.0, 1.740936390298581E9, 0.0, 2025-03-02 19:26:30.298
81.0, 5333.886186347746, 0.0, 0.0, 0.0, 0.0, 0.0, 0.0, 0.0, 0.076, 0.03, 0.986, 192.0, 0.0, 0.0, 0.0, 0.0, 0.0, 0.0, 0.0, 0.0, 0.0, 1.740936390298634E9, 0.0, 2025-03-02 19:26:30.298
82.0, 5272.307130373375, 0.0, 0.0, 0.0, 0.0, 0.0, 0.0, 0.0, 0.076, 0.03, 0.986, 192.0, 0.0, 0.0, 0.0, 0.0, 0.0, 0.0, 0.0, 0.0, 0.0, 1.740936390298682E9, 0.0, 2025-03-02 19:26:30.298
83.0, 5188.555143899339, 0.0, 0.0, 0.0, 0.0, 0.0, 0.0, 0.0, 0.076, 0.03, 0.986, 192.0, 0.0, 0.0, 0.0, 0.0, 0.0, 0.0, 0.0, 0.0, 0.0, 1.740936390298728E9, 0.0, 2025-03-02 19:26:30.298
84.0, 5198.032283548389, 0.0, 0.0, 0.0, 0.0, 0.0, 0.0, 0.0, 0.076, 0.03, 0.986, 192.0, 0.0, 0.0, 0.0, 0.0, 0.0, 0.0, 0.0, 0.0, 0.0, 1.740936390298775E9, 0.0, 2025-03-02 19:26:30.298
85.0, 5251.89998768568, 0.0, 0.0, 0.0, 0.0, 0.0, 0.0, 0.0, 0.076, 0.03, 0.986, 192.0, 0.0, 0.0, 0.0, 0.0, 0.0, 0.0, 0.0, 0.0, 0.0, 1.740936390298819E9, 0.0, 2025-03-02 19:26:30.298
86.0, 5223.155644316154, 0.0, 0.0, 0.0, 0.0, 0.0, 0.0, 0.0, 0.074, 0.034, 0.99, 192.0, 2.0, 80.0, 1.0, 16.0, 30.0, 240.0, 0.0, 0.0, 0.0, 1.740936390298867E9, 0.0, 2025-03-02 19:26:30.298
87.0, 5300.023293497956, 0.0, 0.0, 0.0, 0.0, 0.0, 0.0, 0.0, 0.074, 0.034, 0.99, 192.0, 0.0, 0.0, 0.0, 0.0, 0.0, 0.0, 0.0, 0.0, 0.0, 1.740936390298921E9, 0.0, 2025-03-02 19:26:30.298
88.0, 5302.616095854771, 0.0, 0.0, 0.0, 0.0, 0.0, 0.0, 0.0, 0.074, 0.034, 0.99, 192.0, 0.0, 0.0, 0.0, 0.0, 0.0, 0.0, 0.0, 0.0, 0.0, 1.740936390298969E9, 0.0, 2025-03-02 19:26:30.298
89.0, 5484.671054443247, 0.0, 0.0, 0.0, 0.0, 0.0, 0.0, 0.0, 0.074, 0.034, 0.99, 192.0, 0.0, 0.0, 0.0, 0.0, 0.0, 0.0, 0.0, 0.0, 0.0, 1.740936390299104E9, 0.0, 2025-03-02 19:26:30.299
90.0, 6012.6192584776, 0.0, 0.0, 0.0, 0.0, 0.0, 0.0, 0.0, 0.074, 0.034, 0.99, 192.0, 0.0, 0.0, 0.0, 0.0, 0.0, 0.0, 0.0, 0.0, 0.0, 1.740936390299153E9, 0.0, 2025-03-02 19:26:30.299
91.0, 6292.328988591313, 0.0, 0.0, 0.0, 0.0, 0.0, 0.0, 0.0, 0.074, 0.034, 0.99, 192.0, 0.0, 0.0, 0.0, 0.0, 0.0, 0.0, 0.0, 0.0, 0.0, 1.740936390358646E9, 0.0, 2025-03-02 19:26:30.358
92.0, 6442.264490397512, 0.0, 0.0, 0.0, 0.0, 0.0, 0.0, 0.0, 0.074, 0.034, 0.99, 192.0, 0.0, 0.0, 0.0, 0.0, 0.0, 0.0, 0.0, 0.0, 0.0, 1.740936390358709E9, 0.0, 2025-03-02 19:26:30.358
93.0, 6576.307901895989, 0.0, 0.0, 0.0, 0.0, 0.0, 0.0, 0.0, 0.074, 0.034, 0.99, 192.0, 0.0, 0.0, 0.0, 0.0, 0.0, 0.0, 0.0, 0.0, 0.0, 1.740936390358757E9, 0.0, 2025-03-02 19:26:30.358
94.0, 6646.224158552189, 0.0, 0.0, 0.0, 0.0, 0.0, 0.0, 0.0, 0.074, 0.034, 0.99, 192.0, 0.0, 0.0, 0.0, 0.0, 0.0, 0.0, 0.0, 0.0, 0.0, 1.740936390358806E9, 0.0, 2025-03-02 19:26:30.358
95.0, 6575.525590840053, 0.0, 0.0, 0.0, 0.0, 0.0, 0.0, 0.0, 0.074, 0.034, 0.99, 192.0, 0.0, 0.0, 0.0, 0.0, 0.0, 0.0, 0.0, 0.0, 0.0, 1.740936390358846E9, 0.0, 2025-03-02 19:26:30.358
96.0, 6258.7119649305305, 0.0, 0.0, 0.0, 0.0, 0.0, 0.0, 0.0, 0.076, 0.03, 0.99, 192.0, 2.0, 96.0, 0.0, 240.0, 30.0, 240.0, 0.0, 0.0, 0.0, 1.740936390358877E9, 0.0, 2025-03-02 19:26:30.358
97.0, 5833.559433646135, 0.0, 0.0, 0.0, 0.0, 0.0, 0.0, 0.0, 0.076, 0.03, 0.99, 192.0, 0.0, 0.0, 0.0, 0.0, 0.0, 0.0, 0.0, 0.0, 0.0, 1.740936390358933E9, 0.0, 2025-03-02 19:26:30.358
98.0, 5325.258412987997, 0.0, 0.0, 0.0, 0.0, 0.0, 0.0, 0.0, 0.076, 0.03, 0.99, 192.0, 0.0, 0.0, 0.0, 0.0, 0.0, 0.0, 0.0, 0.0, 0.0, 1.740936390358977E9, 0.0, 2025-03-02 19:26:30.358
99.0, 5049.393182920598, 0.0, 0.0, 0.0, 0.0, 0.0, 0.0, 0.0, 0.076, 0.03, 0.99, 192.0, 0.0, 0.0, 0.0, 0.0, 0.0, 0.0, 0.0, 0.0, 0.0, 1.74093639035902E9, 0.0, 2025-03-02 19:26:30.359
100.0, 5077.355215234186, 0.0, 0.0, 0.0, 0.0, 0.0, 0.0, 0.0, 0.076, 0.03, 0.99, 192.0, 0.0, 0.0, 0.0, 0.0, 0.0, 0.0, 0.0, 0.0, 0.0, 1.740936390359063E9, 0.0, 2025-03-02 19:26:30.359
101.0, 5182.095489751755, 0.0, 0.0, 0.0, 0.0, 0.0, 0.0, 0.0, 0.076, 0.03, 0.99, 192.0, 0.0, 0.0, 0.0, 0.0, 0.0, 0.0, 0.0, 0.0, 0.0, 1.740936390359106E9, 0.0, 2025-03-02 19:26:30.359
102.0, 5398.9744662016, 0.0, 0.0, 0.0, 0.0, 0.0, 0.0, 0.0, 0.076, 0.03, 0.99, 192.0, 0.0, 0.0, 0.0, 0.0, 0.0, 0.0, 0.0, 0.0, 0.0, 1.740936390359149E9, 0.0, 2025-03-02 19:26:30.359
103.0, 5411.558498329938, 0.0, 0.0, 0.0, 0.0, 0.0, 0.0, 0.0, 0.076, 0.03, 0.99, 192.0, 0.0, 0.0, 0.0, 0.0, 0.0, 0.0, 0.0, 0.0, 0.0, 1.740936390359193E9, 0.0, 2025-03-02 19:26:30.359
104.0, 5352.1699133121865, 0.0, 0.0, 0.0, 0.0, 0.0, 0.0, 0.0, 0.076, 0.03, 0.99, 192.0, 0.0, 0.0, 0.0, 0.0, 0.0, 0.0, 0.0, 0.0, 0.0, 1.740936390359238E9, 0.0, 2025-03-02 19:26:30.359
105.0, 5407.959867472633, 0.0, 0.0, 0.0, 0.0, 0.0, 0.0, 0.0, 0.074, 0.03, 0.99, 192.0, 2.0, 80.0, 0.0, 240.0, 30.0, 240.0, 0.0, 0.0, 0.0, 1.740936390359262E9, 0.0, 2025-03-02 19:26:30.359
106.0, 5336.166064282187, 0.0, 0.0, 0.0, 0.0, 0.0, 0.0, 0.0, 0.074, 0.03, 0.99, 192.0, 0.0, 0.0, 0.0, 0.0, 0.0, 0.0, 0.0, 0.0, 0.0, 1.740936390418053E9, 0.0, 2025-03-02 19:26:30.418
107.0, 5341.463427718095, 0.0, 0.0, 0.0, 0.0, 0.0, 0.0, 0.0, 0.074, 0.03, 0.99, 192.0, 0.0, 0.0, 0.0, 0.0, 0.0, 0.0, 0.0, 0.0, 0.0, 1.740936390418159E9, 0.0, 2025-03-02 19:26:30.418
108.0, 5238.80186543487, 0.0, 0.0, 0.0, 0.0, 0.0, 0.0, 0.0, 0.074, 0.03, 0.99, 192.0, 0.0, 0.0, 0.0, 0.0, 0.0, 0.0, 0.0, 0.0, 0.0, 1.740936390418185E9, 0.0, 2025-03-02 19:26:30.418
109.0, 5184.576533386295, 0.0, 0.0, 0.0, 0.0, 0.0, 0.0, 0.0, 0.074, 0.03, 0.99, 192.0, 0.0, 0.0, 0.0, 0.0, 0.0, 0.0, 0.0, 0.0, 0.0, 1.74093639041821E9, 0.0, 2025-03-02 19:26:30.418
110.0, 5277.202162409087, 0.0, 0.0, 0.0, 0.0, 0.0, 0.0, 0.0, 0.074, 0.03, 0.99, 192.0, 0.0, 0.0, 0.0, 0.0, 0.0, 0.0, 0.0, 0.0, 0.0, 1.740936390418233E9, 0.0, 2025-03-02 19:26:30.418
111.0, 5340.904634106712, 0.0, 0.0, 0.0, 0.0, 0.0, 0.0, 0.0, 0.074, 0.03, 0.99, 192.0, 0.0, 0.0, 0.0, 0.0, 0.0, 0.0, 0.0, 0.0, 0.0, 1.740936390418258E9, 0.0, 2025-03-02 19:26:30.418
112.0, 5361.334128538862, 0.0, 0.0, 0.0, 0.0, 0.0, 0.0, 0.0, 0.074, 0.03, 0.99, 192.0, 0.0, 0.0, 0.0, 0.0, 0.0, 0.0, 0.0, 0.0, 0.0, 1.740936390418283E9, 0.0, 2025-03-02 19:26:30.418
113.0, 5367.570265241893, 0.0, 0.0, 0.0, 0.0, 0.0, 0.0, 0.0, 0.074, 0.03, 0.99, 192.0, 0.0, 0.0, 0.0, 0.0, 0.0, 0.0, 0.0, 0.0, 0.0, 1.740936390418306E9, 0.0, 2025-03-02 19:26:30.418
114.0, 5490.102528345887, 0.0, 0.0, 0.0, 0.0, 0.0, 0.0, 0.0, 0.074, 0.03, 0.99, 192.0, 0.0, 0.0, 0.0, 0.0, 0.0, 0.0, 0.0, 0.0, 0.0, 1.74093639041833E9, 0.0, 2025-03-02 19:26:30.418
115.0, 5633.623079493414, 0.0, 0.0, 0.0, 0.0, 0.0, 0.0, 0.0, 0.074, 0.026000000000000002, 0.99, 192.0, 2.0, 80.0, 0.0, 208.0, 30.0, 240.0, 0.0, 0.0, 0.0, 1.740936390418354E9, 0.0, 2025-03-02 19:26:30.418
116.0, 5491.845964413401, 0.0, 0.0, 0.0, 0.0, 0.0, 0.0, 0.0, 0.074, 0.026000000000000002, 0.99, 192.0, 0.0, 0.0, 0.0, 0.0, 0.0, 0.0, 0.0, 0.0, 0.0, 1.740936390418378E9, 0.0, 2025-03-02 19:26:30.418
117.0, 5211.756254643948, 0.0, 0.0, 0.0, 0.0, 0.0, 0.0, 0.0, 0.074, 0.026000000000000002, 0.99, 192.0, 0.0, 0.0, 0.0, 0.0, 0.0, 0.0, 0.0, 0.0, 0.0, 1.740936390418402E9, 0.0, 2025-03-02 19:26:30.418
118.0, 5202.45792895054, 0.0, 0.0, 0.0, 0.0, 0.0, 0.0, 0.0, 0.074, 0.026000000000000002, 0.99, 192.0, 0.0, 0.0, 0.0, 0.0, 0.0, 0.0, 0.0, 0.0, 0.0, 1.740936390418425E9, 0.0, 2025-03-02 19:26:30.418
119.0, 5229.190615319088, 0.0, 0.0, 0.0, 0.0, 0.0, 0.0, 0.0, 0.074, 0.026000000000000002, 0.99, 192.0, 0.0, 0.0, 0.0, 0.0, 0.0, 0.0, 0.0, 0.0, 0.0, 1.740936390418448E9, 0.0, 2025-03-02 19:26:30.418
120.0, 5402.506041825538, 0.0, 0.0, 0.0, 0.0, 0.0, 0.0, 0.0, 0.074, 0.026000000000000002, 0.99, 192.0, 0.0, 0.0, 0.0, 0.0, 0.0, 0.0, 0.0, 0.0, 0.0, 1.740936390418471E9, 0.0, 2025-03-02 19:26:30.418
121.0, 5405.836451749379, 0.0, 0.0, 0.0, 0.0, 0.0, 0.0, 0.0, 0.074, 0.026000000000000002, 0.99, 192.0, 0.0, 0.0, 0.0, 0.0, 0.0, 0.0, 0.0, 0.0, 0.0, 1.740936390477849E9, 0.0, 2025-03-02 19:26:30.477
122.0, 5389.452623063639, 0.0, 0.0, 0.0, 0.0, 0.0, 0.0, 0.0, 0.074, 0.026000000000000002, 0.99, 192.0, 0.0, 0.0, 0.0, 0.0, 0.0, 0.0, 0.0, 0.0, 0.0, 1.740936390477898E9, 0.0, 2025-03-02 19:26:30.477
123.0, 5267.926188460135, 0.0, 0.0, 0.0, 0.0, 0.0, 0.0, 0.0, 0.074, 0.026000000000000002, 0.99, 192.0, 0.0, 0.0, 0.0, 0.0, 0.0, 0.0, 0.0, 0.0, 0.0, 1.740936390477925E9, 0.0, 2025-03-02 19:26:30.477
124.0, 5245.663850982649, 0.0, 0.0, 0.0, 0.0, 0.0, 0.0, 0.0, 0.074, 0.026000000000000002, 0.99, 192.0, 0.0, 0.0, 0.0, 0.0, 0.0, 0.0, 0.0, 0.0, 0.0, 1.740936390478029E9, 0.0, 2025-03-02 19:26:30.478
125.0, 5392.6712742652035, 0.0, 0.0, 0.0, 0.0, 0.0, 0.0, 0.0, 0.078, 0.03, 0.99, 192.0, 2.0, 112.0, 0.0, 240.0, 30.0, 240.0, 0.0, 0.0, 0.0, 1.740936390478056E9, 0.0, 2025-03-02 19:26:30.478
126.0, 5459.279472742018, 0.0, 0.0, 0.0, 0.0, 0.0, 0.0, 0.0, 0.078, 0.03, 0.99, 192.0, 0.0, 0.0, 0.0, 0.0, 0.0, 0.0, 0.0, 0.0, 0.0, 1.740936390478081E9, 0.0, 2025-03-02 19:26:30.478
127.0, 5402.394283103262, 0.0, 0.0, 0.0, 0.0, 0.0, 0.0, 0.0, 0.078, 0.03, 0.99, 192.0, 0.0, 0.0, 0.0, 0.0, 0.0, 0.0, 0.0, 0.0, 0.0, 1.740936390478104E9, 0.0, 2025-03-02 19:26:30.478
128.0, 5321.145692008221, 0.0, 0.0, 0.0, 0.0, 0.0, 0.0, 0.0, 0.078, 0.03, 0.99, 192.0, 0.0, 0.0, 0.0, 0.0, 0.0, 0.0, 0.0, 0.0, 0.0, 1.740936390478127E9, 0.0, 2025-03-02 19:26:30.478
129.0, 5298.101043474799, 0.0, 0.0, 0.0, 0.0, 0.0, 0.0, 0.0, 0.078, 0.03, 0.99, 192.0, 0.0, 0.0, 0.0, 0.0, 0.0, 0.0, 0.0, 0.0, 0.0, 1.74093639047815E9, 0.0, 2025-03-02 19:26:30.478
130.0, 5435.564271874938, 0.0, 0.0, 0.0, 0.0, 0.0, 0.0, 0.0, 0.078, 0.03, 0.99, 192.0, 0.0, 0.0, 0.0, 0.0, 0.0, 0.0, 0.0, 0.0, 0.0, 1.740936390478172E9, 0.0, 2025-03-02 19:26:30.478
131.0, 5498.730301705636, 0.0, 0.0, 0.0, 0.0, 0.0, 0.0, 0.0, 0.078, 0.03, 0.99, 192.0, 0.0, 0.0, 0.0, 0.0, 0.0, 0.0, 0.0, 0.0, 0.0, 1.740936390478195E9, 0.0, 2025-03-02 19:26:30.478
132.0, 5436.994783520077, 0.0, 0.0, 0.0, 0.0, 0.0, 0.0, 0.0, 0.078, 0.03, 0.99, 192.0, 0.0, 0.0, 0.0, 0.0, 0.0, 0.0, 0.0, 0.0, 0.0, 1.740936390478218E9, 0.0, 2025-03-02 19:26:30.478
133.0, 5353.220445301587, 0.0, 0.0, 0.0, 0.0, 0.0, 0.0, 0.0, 0.078, 0.03, 0.99, 192.0, 0.0, 0.0, 0.0, 0.0, 0.0, 0.0, 0.0, 0.0, 0.0, 1.740936390478241E9, 0.0, 2025-03-02 19:26:30.478
134.0, 5350.851160389324, 0.0, 0.0, 0.0, 0.0, 0.0, 0.0, 0.0, 0.078, 0.03, 0.99, 192.0, 0.0, 0.0, 0.0, 0.0, 0.0, 0.0, 0.0, 0.0, 0.0, 1.740936390478264E9, 0.0, 2025-03-02 19:26:30.478
135.0, 5453.289205227996, 0.0, 0.0, 0.0, 0.0, 0.0, 0.0, 0.0, 0.074, 0.028, 0.992, 192.0, 2.0, 80.0, 0.0, 224.0, 31.0, 0.0, 0.0, 0.0, 0.0, 1.740936390478287E9, 0.0, 2025-03-02 19:26:30.478
136.0, 5481.854734641878, 0.0, 0.0, 0.0, 0.0, 0.0, 0.0, 0.0, 0.074, 0.028, 0.992, 192.0, 0.0, 0.0, 0.0, 0.0, 0.0, 0.0, 0.0, 0.0, 0.0, 1.740936390538054E9, 0.0, 2025-03-02 19:26:30.538
137.0, 5536.057714945998, 0.0, 0.0, 0.0, 0.0, 0.0, 0.0, 0.0, 0.074, 0.028, 0.992, 192.0, 0.0, 0.0, 0.0, 0.0, 0.0, 0.0, 0.0, 0.0, 0.0, 1.740936390538102E9, 0.0, 2025-03-02 19:26:30.538
138.0, 5462.967510577144, 0.0, 0.0, 0.0, 0.0, 0.0, 0.0, 0.0, 0.074, 0.028, 0.992, 192.0, 0.0, 0.0, 0.0, 0.0, 0.0, 0.0, 0.0, 0.0, 0.0, 1.740936390538128E9, 0.0, 2025-03-02 19:26:30.538
139.0, 5349.308890021907, 0.0, 0.0, 0.0, 0.0, 0.0, 0.0, 0.0, 0.074, 0.028, 0.992, 192.0, 0.0, 0.0, 0.0, 0.0, 0.0, 0.0, 0.0, 0.0, 0.0, 1.740936390538152E9, 0.0, 2025-03-02 19:26:30.538
140.0, 5459.525341931027, 0.0, 0.0, 0.0, 0.0, 0.0, 0.0, 0.0, 0.074, 0.028, 0.992, 192.0, 0.0, 0.0, 0.0, 0.0, 0.0, 0.0, 0.0, 0.0, 0.0, 1.740936390538175E9, 0.0, 2025-03-02 19:26:30.538
141.0, 5575.262674720607, 0.0, 0.0, 0.0, 0.0, 0.0, 0.0, 0.0, 0.074, 0.028, 0.992, 192.0, 0.0, 0.0, 0.0, 0.0, 0.0, 0.0, 0.0, 0.0, 0.0, 1.740936390538198E9, 0.0, 2025-03-02 19:26:30.538
142.0, 5574.860343320411, 0.0, 0.0, 0.0, 0.0, 0.0, 0.0, 0.0, 0.074, 0.028, 0.992, 192.0, 0.0, 0.0, 0.0, 0.0, 0.0, 0.0, 0.0, 0.0, 0.0, 1.740936390538302E9, 0.0, 2025-03-02 19:26:30.538
143.0, 5471.885856614811, 0.0, 0.0, 0.0, 0.0, 0.0, 0.0, 0.0, 0.074, 0.028, 0.992, 192.0, 0.0, 0.0, 0.0, 0.0, 0.0, 0.0, 0.0, 0.0, 0.0, 1.740936390538356E9, 0.0, 2025-03-02 19:26:30.538
144.0, 5492.561220235971, 0.0, 0.0, 0.0, 0.0, 0.0, 0.0, 0.0, 0.074, 0.028, 0.992, 192.0, 0.0, 0.0, 0.0, 0.0, 0.0, 0.0, 0.0, 0.0, 0.0, 1.740936390538401E9, 0.0, 2025-03-02 19:26:30.538
145.0, 5600.140166299363, 0.0, 0.0, 0.0, 0.0, 0.0, 0.0, 0.0, 0.066, 0.028, 0.992, 192.0, 2.0, 16.0, 0.0, 224.0, 31.0, 0.0, 0.0, 0.0, 0.0, 1.740936390538445E9, 0.0, 2025-03-02 19:26:30.538
146.0, 5658.075887927519, 0.0, 0.0, 0.0, 0.0, 0.0, 0.0, 0.0, 0.066, 0.028, 0.992, 192.0, 0.0, 0.0, 0.0, 0.0, 0.0, 0.0, 0.0, 0.0, 0.0, 1.740936390538489E9, 0.0, 2025-03-02 19:26:30.538
147.0, 5631.700829470257, 0.0, 0.0, 0.0, 0.0, 0.0, 0.0, 0.0, 0.066, 0.028, 0.992, 192.0, 0.0, 0.0, 0.0, 0.0, 0.0, 0.0, 0.0, 0.0, 0.0, 1.740936390538546E9, 0.0, 2025-03-02 19:26:30.538
148.0, 5567.2383984611515, 0.0, 0.0, 0.0, 0.0, 0.0, 0.0, 0.0, 0.066, 0.028, 0.992, 192.0, 0.0, 0.0, 0.0, 0.0, 0.0, 0.0, 0.0, 0.0, 0.0, 1.74093639053857E9, 0.0, 2025-03-02 19:26:30.538
149.0, 5530.04509568752, 0.0, 0.0, 0.0, 0.0, 0.0, 0.0, 0.0, 0.066, 0.028, 0.992, 192.0, 0.0, 0.0, 0.0, 0.0, 0.0, 0.0, 0.0, 0.0, 0.0, 1.740936390538593E9, 0.0, 2025-03-02 19:26:30.538
150.0, 5546.093648206431, 0.0, 0.0, 0.0, 0.0, 0.0, 0.0, 0.0, 0.066, 0.028, 0.992, 192.0, 0.0, 0.0, 0.0, 0.0, 0.0, 0.0, 0.0, 0.0, 0.0, 1.740936390538616E9, 0.0, 2025-03-02 19:26:30.538
151.0, 5610.399617004349, 0.0, 0.0, 0.0, 0.0, 0.0, 0.0, 0.0, 0.066, 0.028, 0.992, 192.0, 0.0, 0.0, 0.0, 0.0, 0.0, 0.0, 0.0, 0.0, 0.0, 1.740936390598349E9, 0.0, 2025-03-02 19:26:30.598
152.0, 5689.345978420494, 0.0, 0.0, 0.0, 0.0, 0.0, 0.0, 0.0, 0.066, 0.028, 0.992, 192.0, 0.0, 0.0, 0.0, 0.0, 0.0, 0.0, 0.0, 0.0, 0.0, 1.740936390598415E9, 0.0, 2025-03-02 19:26:30.598
153.0, 5564.377375170872, 0.0, 0.0, 0.0, 0.0, 0.0, 0.0, 0.0, 0.066, 0.028, 0.992, 192.0, 0.0, 0.0, 0.0, 0.0, 0.0, 0.0, 0.0, 0.0, 0.0, 1.740936390598461E9, 0.0, 2025-03-02 19:26:30.598
154.0, 5467.326100745929, 0.0, 0.0, 0.0, 0.0, 0.0, 0.0, 0.0, 0.068, 0.028, 0.988, 192.0, 2.0, 32.0, 0.0, 224.0, 30.0, 224.0, 0.0, 0.0, 0.0, 1.740936390598505E9, 0.0, 2025-03-02 19:26:30.598
155.0, 5523.585441539936, 0.0, 0.0, 0.0, 0.0, 0.0, 0.0, 0.0, 0.068, 0.028, 0.988, 192.0, 0.0, 0.0, 0.0, 0.0, 0.0, 0.0, 0.0, 0.0, 0.0, 1.740936390598563E9, 0.0, 2025-03-02 19:26:30.598
156.0, 5589.925419083288, 0.0, 0.0, 0.0, 0.0, 0.0, 0.0, 0.0, 0.068, 0.028, 0.988, 192.0, 0.0, 0.0, 0.0, 0.0, 0.0, 0.0, 0.0, 0.0, 0.0, 1.740936390598606E9, 0.0, 2025-03-02 19:26:30.598
157.0, 5577.542552655048, 0.0, 0.0, 0.0, 0.0, 0.0, 0.0, 0.0, 0.068, 0.028, 0.988, 192.0, 0.0, 0.0, 0.0, 0.0, 0.0, 0.0, 0.0, 0.0, 0.0, 1.74093639059865E9, 0.0, 2025-03-02 19:26:30.598
158.0, 5519.428017071249, 0.0, 0.0, 0.0, 0.0, 0.0, 0.0, 0.0, 0.068, 0.028, 0.988, 192.0, 0.0, 0.0, 0.0, 0.0, 0.0, 0.0, 0.0, 0.0, 0.0, 1.740936390598693E9, 0.0, 2025-03-02 19:26:30.598
159.0, 5444.281452212507, 0.0, 0.0, 0.0, 0.0, 0.0, 0.0, 0.0, 0.068, 0.028, 0.988, 192.0, 0.0, 0.0, 0.0, 0.0, 0.0, 0.0, 0.0, 0.0, 0.0, 1.740936390598796E9, 0.0, 2025-03-02 19:26:30.598
160.0, 5493.432938269728, 0.0, 0.0, 0.0, 0.0, 0.0, 0.0, 0.0, 0.068, 0.028, 0.988, 192.0, 0.0, 0.0, 0.0, 0.0, 0.0, 0.0, 0.0, 0.0, 0.0, 1.74093639059884E9, 0.0, 2025-03-02 19:26:30.598
161.0, 5480.603036952381, 0.0, 0.0, 0.0, 0.0, 0.0, 0.0, 0.0, 0.068, 0.028, 0.988, 192.0, 0.0, 0.0, 0.0, 0.0, 0.0, 0.0, 0.0, 0.0, 0.0, 1.740936390598882E9, 0.0, 2025-03-02 19:26:30.598
162.0, 5427.763513060036, 0.0, 0.0, 0.0, 0.0, 0.0, 0.0, 0.0, 0.068, 0.028, 0.988, 192.0, 0.0, 0.0, 0.0, 0.0, 0.0, 0.0, 0.0, 0.0, 0.0, 1.740936390598925E9, 0.0, 2025-03-02 19:26:30.598
163.0, 5386.166916628709, 0.0, 0.0, 0.0, 0.0, 0.0, 0.0, 0.0, 0.068, 0.028, 0.988, 192.0, 0.0, 0.0, 0.0, 0.0, 0.0, 0.0, 0.0, 0.0, 0.0, 1.740936390598968E9, 0.0, 2025-03-02 19:26:30.598
164.0, 5329.751113623513, 0.0, 0.0, 0.0, 0.0, 0.0, 0.0, 0.0, 0.064, 0.028, 0.99, 192.0, 2.0, 0.0, 0.0, 224.0, 30.0, 240.0, 0.0, 0.0, 0.0, 1.740936390599011E9, 0.0, 2025-03-02 19:26:30.599
165.0, 5296.37995915174, 0.0, 0.0, 0.0, 0.0, 0.0, 0.0, 0.0, 0.064, 0.028, 0.99, 192.0, 0.0, 0.0, 0.0, 0.0, 0.0, 0.0, 0.0, 0.0, 0.0, 1.740936390599055E9, 0.0, 2025-03-02 19:26:30.599
166.0, 5346.716087665091, 0.0, 0.0, 0.0, 0.0, 0.0, 0.0, 0.0, 0.064, 0.028, 0.99, 192.0, 0.0, 0.0, 0.0, 0.0, 0.0, 0.0, 0.0, 0.0, 0.0, 1.740936390658599E9, 0.0, 2025-03-02 19:26:30.658
167.0, 5424.902489769756, 0.0, 0.0, 0.0, 0.0, 0.0, 0.0, 0.0, 0.064, 0.028, 0.99, 192.0, 0.0, 0.0, 0.0, 0.0, 0.0, 0.0, 0.0, 0.0, 0.0, 1.740936390658646E9, 0.0, 2025-03-02 19:26:30.658
168.0, 5333.752075881013, 0.0, 0.0, 0.0, 0.0, 0.0, 0.0, 0.0, 0.064, 0.028, 0.99, 192.0, 0.0, 0.0, 0.0, 0.0, 0.0, 0.0, 0.0, 0.0, 0.0, 1.740936390658672E9, 0.0, 2025-03-02 19:26:30.658
169.0, 5206.481242952495, 0.0, 0.0, 0.0, 0.0, 0.0, 0.0, 0.0, 0.064, 0.028, 0.99, 192.0, 0.0, 0.0, 0.0, 0.0, 0.0, 0.0, 0.0, 0.0, 0.0, 1.740936390658725E9, 0.0, 2025-03-02 19:26:30.658
170.0, 5323.738494365036, 0.0, 0.0, 0.0, 0.0, 0.0, 0.0, 0.0, 0.064, 0.028, 0.99, 192.0, 0.0, 0.0, 0.0, 0.0, 0.0, 0.0, 0.0, 0.0, 0.0, 1.740936390658748E9, 0.0, 2025-03-02 19:26:30.658
171.0, 5414.441873364673, 0.0, 0.0, 0.0, 0.0, 0.0, 0.0, 0.0, 0.064, 0.028, 0.99, 192.0, 0.0, 0.0, 0.0, 0.0, 0.0, 0.0, 0.0, 0.0, 0.0, 1.740936390658771E9, 0.0, 2025-03-02 19:26:30.658
172.0, 5393.6100475323265, 0.0, 0.0, 0.0, 0.0, 0.0, 0.0, 0.0, 0.064, 0.028, 0.99, 192.0, 0.0, 0.0, 0.0, 0.0, 0.0, 0.0, 0.0, 0.0, 0.0, 1.740936390658794E9, 0.0, 2025-03-02 19:26:30.658
173.0, 5237.930147401113, 0.0, 0.0, 0.0, 0.0, 0.0, 0.0, 0.0, 0.064, 0.028, 0.99, 192.0, 0.0, 0.0, 0.0, 0.0, 0.0, 0.0, 0.0, 0.0, 0.0, 1.740936390658817E9, 0.0, 2025-03-02 19:26:30.658
174.0, 5168.863257034213, 0.0, 0.0, 0.0, 0.0, 0.0, 0.0, 0.0, 0.068, 0.022, 0.994, 192.0, 2.0, 32.0, 0.0, 176.0, 31.0, 16.0, 0.0, 0.0, 0.0, 1.74093639065884E9, 0.0, 2025-03-02 19:26:30.658
175.0, 5298.771595808458, 0.0, 0.0, 0.0, 0.0, 0.0, 0.0, 0.0, 0.068, 0.022, 0.994, 192.0, 0.0, 0.0, 0.0, 0.0, 0.0, 0.0, 0.0, 0.0, 0.0, 1.740936390658878E9, 0.0, 2025-03-02 19:26:30.658
176.0, 5391.374873086796, 0.0, 0.0, 0.0, 0.0, 0.0, 0.0, 0.0, 0.068, 0.022, 0.994, 192.0, 0.0, 0.0, 0.0, 0.0, 0.0, 0.0, 0.0, 0.0, 0.0, 1.740936390658927E9, 0.0, 2025-03-02 19:26:30.658
177.0, 5379.461393292117, 0.0, 0.0, 0.0, 0.0, 0.0, 0.0, 0.0, 0.068, 0.022, 0.994, 192.0, 0.0, 0.0, 0.0, 0.0, 0.0, 0.0, 0.0, 0.0, 0.0, 1.740936390659027E9, 0.0, 2025-03-02 19:26:30.659
178.0, 5281.069014199855, 0.0, 0.0, 0.0, 0.0, 0.0, 0.0, 0.0, 0.068, 0.022, 0.994, 192.0, 0.0, 0.0, 0.0, 0.0, 0.0, 0.0, 0.0, 0.0, 0.0, 1.740936390659071E9, 0.0, 2025-03-02 19:26:30.659
179.0, 5221.792187904381, 0.0, 0.0, 0.0, 0.0, 0.0, 0.0, 0.0, 0.068, 0.022, 0.994, 192.0, 0.0, 0.0, 0.0, 0.0, 0.0, 0.0, 0.0, 0.0, 0.0, 1.740936390659115E9, 0.0, 2025-03-02 19:26:30.659
180.0, 5321.525671663961, 0.0, 0.0, 0.0, 0.0, 0.0, 0.0, 0.0, 0.068, 0.022, 0.994, 192.0, 0.0, 0.0, 0.0, 0.0, 0.0, 0.0, 0.0, 0.0, 0.0, 1.740936390659158E9, 0.0, 2025-03-02 19:26:30.659
181.0, 5394.414710332717, 0.0, 0.0, 0.0, 0.0, 0.0, 0.0, 0.0, 0.068, 0.022, 0.994, 192.0, 0.0, 0.0, 0.0, 0.0, 0.0, 0.0, 0.0, 0.0, 0.0, 1.74093639071814E9, 0.0, 2025-03-02 19:26:30.718
182.0, 5349.331241766363, 0.0, 0.0, 0.0, 0.0, 0.0, 0.0, 0.0, 0.068, 0.022, 0.994, 192.0, 0.0, 0.0, 0.0, 0.0, 0.0, 0.0, 0.0, 0.0, 0.0, 1.740936390718186E9, 0.0, 2025-03-02 19:26:30.718
183.0, 5218.752350658459, 0.0, 0.0, 0.0, 0.0, 0.0, 0.0, 0.0, 0.068, 0.022, 0.994, 192.0, 0.0, 0.0, 0.0, 0.0, 0.0, 0.0, 0.0, 0.0, 0.0, 1.740936390718211E9, 0.0, 2025-03-02 19:26:30.718
184.0, 5178.0721757498, 0.0, 0.0, 0.0, 0.0, 0.0, 0.0, 0.0, 0.07, 0.028, 0.99, 192.0, 2.0, 48.0, 0.0, 224.0, 30.0, 240.0, 0.0, 0.0, 0.0, 1.740936390718235E9, 0.0, 2025-03-02 19:26:30.718
185.0, 5232.453970009562, 0.0, 0.0, 0.0, 0.0, 0.0, 0.0, 0.0, 0.07, 0.028, 0.99, 192.0, 0.0, 0.0, 0.0, 0.0, 0.0, 0.0, 0.0, 0.0, 0.0, 1.74093639071826E9, 0.0, 2025-03-02 19:26:30.718
186.0, 5356.193227314142, 0.0, 0.0, 0.0, 0.0, 0.0, 0.0, 0.0, 0.07, 0.028, 0.99, 192.0, 0.0, 0.0, 0.0, 0.0, 0.0, 0.0, 0.0, 0.0, 0.0, 1.740936390718283E9, 0.0, 2025-03-02 19:26:30.718
187.0, 5359.523637237983, 0.0, 0.0, 0.0, 0.0, 0.0, 0.0, 0.0, 0.07, 0.028, 0.99, 192.0, 0.0, 0.0, 0.0, 0.0, 0.0, 0.0, 0.0, 0.0, 0.0, 1.740936390718306E9, 0.0, 2025-03-02 19:26:30.718
188.0, 5256.70561274357, 0.0, 0.0, 0.0, 0.0, 0.0, 0.0, 0.0, 0.07, 0.028, 0.99, 192.0, 0.0, 0.0, 0.0, 0.0, 0.0, 0.0, 0.0, 0.0, 0.0, 1.740936390718329E9, 0.0, 2025-03-02 19:26:30.718
189.0, 5206.324780741308, 0.0, 0.0, 0.0, 0.0, 0.0, 0.0, 0.0, 0.07, 0.028, 0.99, 192.0, 0.0, 0.0, 0.0, 0.0, 0.0, 0.0, 0.0, 0.0, 0.0, 1.740936390718351E9, 0.0, 2025-03-02 19:26:30.718
190.0, 5312.540270392928, 0.0, 0.0, 0.0, 0.0, 0.0, 0.0, 0.0, 0.07, 0.028, 0.99, 192.0, 0.0, 0.0, 0.0, 0.0, 0.0, 0.0, 0.0, 0.0, 0.0, 1.740936390718374E9, 0.0, 2025-03-02 19:26:30.718
191.0, 5329.415837456684, 0.0, 0.0, 0.0, 0.0, 0.0, 0.0, 0.0, 0.07, 0.028, 0.99, 192.0, 0.0, 0.0, 0.0, 0.0, 0.0, 0.0, 0.0, 0.0, 0.0, 1.740936390718397E9, 0.0, 2025-03-02 19:26:30.718
192.0, 5344.9502998531225, 0.0, 0.0, 0.0, 0.0, 0.0, 0.0, 0.0, 0.07, 0.028, 0.99, 192.0, 0.0, 0.0, 0.0, 0.0, 0.0, 0.0, 0.0, 0.0, 0.0, 1.74093639071842E9, 0.0, 2025-03-02 19:26:30.718
193.0, 5297.497546374506, 0.0, 0.0, 0.0, 0.0, 0.0, 0.0, 0.0, 0.068, 0.028, 0.988, 192.0, 2.0, 32.0, 0.0, 224.0, 30.0, 224.0, 0.0, 0.0, 0.0, 1.740936390718443E9, 0.0, 2025-03-02 19:26:30.718
194.0, 5234.957365388556, 0.0, 0.0, 0.0, 0.0, 0.0, 0.0, 0.0, 0.068, 0.028, 0.988, 192.0, 0.0, 0.0, 0.0, 0.0, 0.0, 0.0, 0.0, 0.0, 0.0, 1.740936390718467E9, 0.0, 2025-03-02 19:26:30.718
195.0, 5247.317880072342, 0.0, 0.0, 0.0, 0.0, 0.0, 0.0, 0.0, 0.068, 0.028, 0.988, 192.0, 0.0, 0.0, 0.0, 0.0, 0.0, 0.0, 0.0, 0.0, 0.0, 1.740936390718555E9, 0.0, 2025-03-02 19:26:30.718
196.0, 5276.196333908598, 0.0, 0.0, 0.0, 0.0, 0.0, 0.0, 0.0, 0.068, 0.028, 0.988, 192.0, 0.0, 0.0, 0.0, 0.0, 0.0, 0.0, 0.0, 0.0, 0.0, 1.740936390777704E9, 0.0, 2025-03-02 19:26:30.777
197.0, 5344.637375430748, 0.0, 0.0, 0.0, 0.0, 0.0, 0.0, 0.0, 0.068, 0.028, 0.988, 192.0, 0.0, 0.0, 0.0, 0.0, 0.0, 0.0, 0.0, 0.0, 0.0, 1.74093639077775E9, 0.0, 2025-03-02 19:26:30.777
198.0, 5307.153499979198, 0.0, 0.0, 0.0, 0.0, 0.0, 0.0, 0.0, 0.068, 0.028, 0.988, 192.0, 0.0, 0.0, 0.0, 0.0, 0.0, 0.0, 0.0, 0.0, 0.0, 1.740936390777775E9, 0.0, 2025-03-02 19:26:30.777
199.0, 5210.83983312128, 0.0, 0.0, 0.0, 0.0, 0.0, 0.0, 0.0, 0.068, 0.028, 0.988, 192.0, 0.0, 0.0, 0.0, 0.0, 0.0, 0.0, 0.0, 0.0, 0.0, 1.740936390777799E9, 0.0, 2025-03-02 19:26:30.777
200.0, 5313.590802382327, 0.0, 0.0, 0.0, 0.0, 0.0, 0.0, 0.0, 0.068, 0.028, 0.988, 192.0, 0.0, 0.0, 0.0, 0.0, 0.0, 0.0, 0.0, 0.0, 0.0, 1.740936390777821E9, 0.0, 2025-03-02 19:26:30.777
201.0, 5327.538290922438, 0.0, 0.0, 0.0, 0.0, 0.0, 0.0, 0.0, 0.068, 0.028, 0.988, 192.0, 0.0, 0.0, 0.0, 0.0, 0.0, 0.0, 0.0, 0.0, 0.0, 1.740936390777844E9, 0.0, 2025-03-02 19:26:30.777
202.0, 5245.015650393445, 0.0, 0.0, 0.0, 0.0, 0.0, 0.0, 0.0, 0.068, 0.028, 0.988, 192.0, 0.0, 0.0, 0.0, 0.0, 0.0, 0.0, 0.0, 0.0, 0.0, 1.740936390777867E9, 0.0, 2025-03-02 19:26:30.777
203.0, 5225.457873995051, 0.0, 0.0, 0.0, 0.0, 0.0, 0.0, 0.0, 0.074, 0.03, 0.986, 192.0, 2.0, 80.0, 0.0, 240.0, 30.0, 208.0, 0.0, 0.0, 0.0, 1.740936390777895E9, 0.0, 2025-03-02 19:26:30.777
204.0, 5231.381086275707, 0.0, 0.0, 0.0, 0.0, 0.0, 0.0, 0.0, 0.074, 0.03, 0.986, 192.0, 0.0, 0.0, 0.0, 0.0, 0.0, 0.0, 0.0, 0.0, 0.0, 1.74093639077792E9, 0.0, 2025-03-02 19:26:30.777
205.0, 5282.298360144897, 0.0, 0.0, 0.0, 0.0, 0.0, 0.0, 0.0, 0.074, 0.03, 0.986, 192.0, 0.0, 0.0, 0.0, 0.0, 0.0, 0.0, 0.0, 0.0, 0.0, 1.740936390777943E9, 0.0, 2025-03-02 19:26:30.777
206.0, 5353.265148790497, 0.0, 0.0, 0.0, 0.0, 0.0, 0.0, 0.0, 0.074, 0.03, 0.986, 192.0, 0.0, 0.0, 0.0, 0.0, 0.0, 0.0, 0.0, 0.0, 0.0, 1.740936390777966E9, 0.0, 2025-03-02 19:26:30.777
207.0, 5403.891849981767, 0.0, 0.0, 0.0, 0.0, 0.0, 0.0, 0.0, 0.074, 0.03, 0.986, 192.0, 0.0, 0.0, 0.0, 0.0, 0.0, 0.0, 0.0, 0.0, 0.0, 1.740936390777988E9, 0.0, 2025-03-02 19:26:30.777
208.0, 5355.321509280385, 0.0, 0.0, 0.0, 0.0, 0.0, 0.0, 0.0, 0.074, 0.03, 0.986, 192.0, 0.0, 0.0, 0.0, 0.0, 0.0, 0.0, 0.0, 0.0, 0.0, 1.740936390778015E9, 0.0, 2025-03-02 19:26:30.778
209.0, 5224.0273623499115, 0.0, 0.0, 0.0, 0.0, 0.0, 0.0, 0.0, 0.074, 0.03, 0.986, 192.0, 0.0, 0.0, 0.0, 0.0, 0.0, 0.0, 0.0, 0.0, 0.0, 1.740936390778037E9, 0.0, 2025-03-02 19:26:30.778
210.0, 5274.832877496824, 0.0, 0.0, 0.0, 0.0, 0.0, 0.0, 0.0, 0.074, 0.03, 0.986, 192.0, 0.0, 0.0, 0.0, 0.0, 0.0, 0.0, 0.0, 0.0, 0.0, 1.74093639077806E9, 0.0, 2025-03-02 19:26:30.778
211.0, 5307.0864447458325, 0.0, 0.0, 0.0, 0.0, 0.0, 0.0, 0.0, 0.074, 0.03, 0.986, 192.0, 0.0, 0.0, 0.0, 0.0, 0.0, 0.0, 0.0, 0.0, 0.0, 1.740936390838058E9, 0.0, 2025-03-02 19:26:30.838
212.0, 5328.030029300455, 0.0, 0.0, 0.0, 0.0, 0.0, 0.0, 0.0, 0.074, 0.03, 0.986, 192.0, 0.0, 0.0, 0.0, 0.0, 0.0, 0.0, 0.0, 0.0, 0.0, 1.740936390838162E9, 0.0, 2025-03-02 19:26:30.838
213.0, 5282.700691545092, 0.0, 0.0, 0.0, 0.0, 0.0, 0.0, 0.0, 0.07, 0.028, 0.984, 192.0, 2.0, 48.0, 0.0, 224.0, 30.0, 192.0, 0.0, 0.0, 0.0, 1.740936390838214E9, 0.0, 2025-03-02 19:26:30.838
214.0, 5258.225531366531, 0.0, 0.0, 0.0, 0.0, 0.0, 0.0, 0.0, 0.07, 0.028, 0.984, 192.0, 0.0, 0.0, 0.0, 0.0, 0.0, 0.0, 0.0, 0.0, 0.0, 1.740936390838244E9, 0.0, 2025-03-02 19:26:30.838
215.0, 5313.456691915595, 0.0, 0.0, 0.0, 0.0, 0.0, 0.0, 0.0, 0.07, 0.028, 0.984, 192.0, 0.0, 0.0, 0.0, 0.0, 0.0, 0.0, 0.0, 0.0, 0.0, 1.740936390838267E9, 0.0, 2025-03-02 19:26:30.838
216.0, 5334.53438693695, 0.0, 0.0, 0.0, 0.0, 0.0, 0.0, 0.0, 0.07, 0.028, 0.984, 192.0, 0.0, 0.0, 0.0, 0.0, 0.0, 0.0, 0.0, 0.0, 0.0, 1.74093639083829E9, 0.0, 2025-03-02 19:26:30.838
217.0, 5338.065962560888, 0.0, 0.0, 0.0, 0.0, 0.0, 0.0, 0.0, 0.07, 0.028, 0.984, 192.0, 0.0, 0.0, 0.0, 0.0, 0.0, 0.0, 0.0, 0.0, 0.0, 1.740936390838313E9, 0.0, 2025-03-02 19:26:30.838
218.0, 5260.147781389687, 0.0, 0.0, 0.0, 0.0, 0.0, 0.0, 0.0, 0.07, 0.028, 0.984, 192.0, 0.0, 0.0, 0.0, 0.0, 0.0, 0.0, 0.0, 0.0, 0.0, 1.740936390838336E9, 0.0, 2025-03-02 19:26:30.838
219.0, 5179.994425772957, 0.0, 0.0, 0.0, 0.0, 0.0, 0.0, 0.0, 0.07, 0.028, 0.984, 192.0, 0.0, 0.0, 0.0, 0.0, 0.0, 0.0, 0.0, 0.0, 0.0, 1.740936390838359E9, 0.0, 2025-03-02 19:26:30.838
220.0, 5237.326650300819, 0.0, 0.0, 0.0, 0.0, 0.0, 0.0, 0.0, 0.07, 0.028, 0.984, 192.0, 0.0, 0.0, 0.0, 0.0, 0.0, 0.0, 0.0, 0.0, 0.0, 1.740936390838382E9, 0.0, 2025-03-02 19:26:30.838
221.0, 5328.72293337857, 0.0, 0.0, 0.0, 0.0, 0.0, 0.0, 0.0, 0.07, 0.028, 0.984, 192.0, 0.0, 0.0, 0.0, 0.0, 0.0, 0.0, 0.0, 0.0, 0.0, 1.740936390838405E9, 0.0, 2025-03-02 19:26:30.838
222.0, 5373.649939733737, 0.0, 0.0, 0.0, 0.0, 0.0, 0.0, 0.0, 0.07, 0.028, 0.984, 192.0, 0.0, 0.0, 0.0, 0.0, 0.0, 0.0, 0.0, 0.0, 0.0, 1.740936390838427E9, 0.0, 2025-03-02 19:26:30.838
223.0, 5265.713365759059, 0.0, 0.0, 0.0, 0.0, 0.0, 0.0, 0.0, 0.07, 0.028, 0.984, 192.0, 2.0, 48.0, 0.0, 224.0, 30.0, 192.0, 0.0, 0.0, 0.0, 1.74093639083845E9, 0.0, 2025-03-02 19:26:30.838
224.0, 5192.489050923473, 0.0, 0.0, 0.0, 0.0, 0.0, 0.0, 0.0, 0.07, 0.028, 0.984, 192.0, 0.0, 0.0, 0.0, 0.0, 0.0, 0.0, 0.0, 0.0, 0.0, 1.740936390838475E9, 0.0, 2025-03-02 19:26:30.838
225.0, 5249.553054517872, 0.0, 0.0, 0.0, 0.0, 0.0, 0.0, 0.0, 0.07, 0.028, 0.984, 192.0, 0.0, 0.0, 0.0, 0.0, 0.0, 0.0, 0.0, 0.0, 0.0, 1.740936390838498E9, 0.0, 2025-03-02 19:26:30.838
226.0, 5342.089276562843, 0.0, 0.0, 0.0, 0.0, 0.0, 0.0, 0.0, 0.07, 0.028, 0.984, 192.0, 0.0, 0.0, 0.0, 0.0, 0.0, 0.0, 0.0, 0.0, 0.0, 1.740936390898344E9, 0.0, 2025-03-02 19:26:30.898
227.0, 5433.619670107326, 0.0, 0.0, 0.0, 0.0, 0.0, 0.0, 0.0, 0.07, 0.028, 0.984, 192.0, 0.0, 0.0, 0.0, 0.0, 0.0, 0.0, 0.0, 0.0, 0.0, 1.740936390898392E9, 0.0, 2025-03-02 19:26:30.898
228.0, 5360.350651782829, 0.0, 0.0, 0.0, 0.0, 0.0, 0.0, 0.0, 0.07, 0.028, 0.984, 192.0, 0.0, 0.0, 0.0, 0.0, 0.0, 0.0, 0.0, 0.0, 0.0, 1.740936390898417E9, 0.0, 2025-03-02 19:26:30.898
229.0, 5272.620054795749, 0.0, 0.0, 0.0, 0.0, 0.0, 0.0, 0.0, 0.07, 0.028, 0.984, 192.0, 0.0, 0.0, 0.0, 0.0, 0.0, 0.0, 0.0, 0.0, 0.0, 1.740936390898441E9, 0.0, 2025-03-02 19:26:30.898
230.0, 5281.314883388864, 0.0, 0.0, 0.0, 0.0, 0.0, 0.0, 0.0, 0.07, 0.028, 0.984, 192.0, 0.0, 0.0, 0.0, 0.0, 0.0, 0.0, 0.0, 0.0, 0.0, 1.740936390898566E9, 0.0, 2025-03-02 19:26:30.898
231.0, 5273.536476318416, 0.0, 0.0, 0.0, 0.0, 0.0, 0.0, 0.0, 0.07, 0.028, 0.984, 192.0, 0.0, 0.0, 0.0, 0.0, 0.0, 0.0, 0.0, 0.0, 0.0, 1.740936390898613E9, 0.0, 2025-03-02 19:26:30.898
232.0, 5281.493697344506, 0.0, 0.0, 0.0, 0.0, 0.0, 0.0, 0.0, 0.07, 0.028, 0.984, 192.0, 0.0, 0.0, 0.0, 0.0, 0.0, 0.0, 0.0, 0.0, 0.0, 1.740936390898656E9, 0.0, 2025-03-02 19:26:30.898
233.0, 5308.04756975741, 0.0, 0.0, 0.0, 0.0, 0.0, 0.0, 0.0, 0.07, 0.032, 0.986, 192.0, 2.0, 48.0, 1.0, 0.0, 30.0, 208.0, 0.0, 0.0, 0.0, 1.7409363908987E9, 0.0, 2025-03-02 19:26:30.898
234.0, 5290.52380210445, 0.0, 0.0, 0.0, 0.0, 0.0, 0.0, 0.0, 0.07, 0.032, 0.986, 192.0, 0.0, 0.0, 0.0, 0.0, 0.0, 0.0, 0.0, 0.0, 0.0, 1.740936390898745E9, 0.0, 2025-03-02 19:26:30.898
235.0, 5305.343008678318, 0.0, 0.0, 0.0, 0.0, 0.0, 0.0, 0.0, 0.07, 0.032, 0.986, 192.0, 0.0, 0.0, 0.0, 0.0, 0.0, 0.0, 0.0, 0.0, 0.0, 1.740936390898789E9, 0.0, 2025-03-02 19:26:30.898
236.0, 5283.907685745679, 0.0, 0.0, 0.0, 0.0, 0.0, 0.0, 0.0, 0.07, 0.032, 0.986, 192.0, 0.0, 0.0, 0.0, 0.0, 0.0, 0.0, 0.0, 0.0, 0.0, 1.740936390898832E9, 0.0, 2025-03-02 19:26:30.898
237.0, 5260.438354067606, 0.0, 0.0, 0.0, 0.0, 0.0, 0.0, 0.0, 0.07, 0.032, 0.986, 192.0, 0.0, 0.0, 0.0, 0.0, 0.0, 0.0, 0.0, 0.0, 0.0, 1.740936390898881E9, 0.0, 2025-03-02 19:26:30.898
238.0, 5248.949557417579, 0.0, 0.0, 0.0, 0.0, 0.0, 0.0, 0.0, 0.07, 0.032, 0.986, 192.0, 0.0, 0.0, 0.0, 0.0, 0.0, 0.0, 0.0, 0.0, 0.0, 1.74093639089893E9, 0.0, 2025-03-02 19:26:30.898
239.0, 5201.876783594702, 0.0, 0.0, 0.0, 0.0, 0.0, 0.0, 0.0, 0.07, 0.032, 0.986, 192.0, 0.0, 0.0, 0.0, 0.0, 0.0, 0.0, 0.0, 0.0, 0.0, 1.740936390898976E9, 0.0, 2025-03-02 19:26:30.898
240.0, 5292.691921316615, 0.0, 0.0, 0.0, 0.0, 0.0, 0.0, 0.0, 0.07, 0.032, 0.986, 192.0, 0.0, 0.0, 0.0, 0.0, 0.0, 0.0, 0.0, 0.0, 0.0, 1.740936390899022E9, 0.0, 2025-03-02 19:26:30.899
241.0, 5339.854102117312, 0.0, 0.0, 0.0, 0.0, 0.0, 0.0, 0.0, 0.07, 0.032, 0.986, 192.0, 0.0, 0.0, 0.0, 0.0, 0.0, 0.0, 0.0, 0.0, 0.0, 1.740936390958557E9, 0.0, 2025-03-02 19:26:30.958
242.0, 5329.840520601335, 0.0, 0.0, 0.0, 0.0, 0.0, 0.0, 0.0, 0.074, 0.024, 0.986, 192.0, 2.0, 80.0, 0.0, 192.0, 30.0, 208.0, 0.0, 0.0, 0.0, 1.740936390958604E9, 0.0, 2025-03-02 19:26:30.958
243.0, 5335.450808459617, 0.0, 0.0, 0.0, 0.0, 0.0, 0.0, 0.0, 0.074, 0.024, 0.986, 192.0, 0.0, 0.0, 0.0, 0.0, 0.0, 0.0, 0.0, 0.0, 0.0, 1.740936390958631E9, 0.0, 2025-03-02 19:26:30.958
244.0, 5305.566526122871, 0.0, 0.0, 0.0, 0.0, 0.0, 0.0, 0.0, 0.074, 0.024, 0.986, 192.0, 0.0, 0.0, 0.0, 0.0, 0.0, 0.0, 0.0, 0.0, 0.0, 1.740936390958655E9, 0.0, 2025-03-02 19:26:30.958
245.0, 5306.371188923263, 0.0, 0.0, 0.0, 0.0, 0.0, 0.0, 0.0, 0.074, 0.024, 0.986, 192.0, 0.0, 0.0, 0.0, 0.0, 0.0, 0.0, 0.0, 0.0, 0.0, 1.740936390958678E9, 0.0, 2025-03-02 19:26:30.958
246.0, 5367.033823374966, 0.0, 0.0, 0.0, 0.0, 0.0, 0.0, 0.0, 0.074, 0.024, 0.986, 192.0, 0.0, 0.0, 0.0, 0.0, 0.0, 0.0, 0.0, 0.0, 0.0, 1.7409363909587E9, 0.0, 2025-03-02 19:26:30.958
247.0, 5400.583791802382, 0.0, 0.0, 0.0, 0.0, 0.0, 0.0, 0.0, 0.074, 0.024, 0.986, 192.0, 0.0, 0.0, 0.0, 0.0, 0.0, 0.0, 0.0, 0.0, 0.0, 1.740936390958723E9, 0.0, 2025-03-02 19:26:30.958
248.0, 5344.816189386391, 0.0, 0.0, 0.0, 0.0, 0.0, 0.0, 0.0, 0.074, 0.024, 0.986, 192.0, 0.0, 0.0, 0.0, 0.0, 0.0, 0.0, 0.0, 0.0, 0.0, 1.740936390958813E9, 0.0, 2025-03-02 19:26:30.958
249.0, 5257.532627288417, 0.0, 0.0, 0.0, 0.0, 0.0, 0.0, 0.0, 0.074, 0.024, 0.986, 192.0, 0.0, 0.0, 0.0, 0.0, 0.0, 0.0, 0.0, 0.0, 0.0, 1.740936390958856E9, 0.0, 2025-03-02 19:26:30.958
250.0, 5381.294236337452, 0.0, 0.0, 0.0, 0.0, 0.0, 0.0, 0.0, 0.074, 0.024, 0.986, 192.0, 0.0, 0.0, 0.0, 0.0, 0.0, 0.0, 0.0, 0.0, 0.0, 1.740936390958879E9, 0.0, 2025-03-02 19:26:30.958
251.0, 5528.7933979980235, 0.0, 0.0, 0.0, 0.0, 0.0, 0.0, 0.0, 0.074, 0.024, 0.986, 192.0, 0.0, 0.0, 0.0, 0.0, 0.0, 0.0, 0.0, 0.0, 0.0, 1.740936390958902E9, 0.0, 2025-03-02 19:26:30.958
252.0, 5557.157761711808, 0.0, 0.0, 0.0, 0.0, 0.0, 0.0, 0.0, 0.07, 0.028, 0.986, 192.0, 2.0, 48.0, 0.0, 224.0, 30.0, 208.0, 0.0, 0.0, 0.0, 1.740936390958925E9, 0.0, 2025-03-02 19:26:30.958
253.0, 5506.3075430759845, 0.0, 0.0, 0.0, 0.0, 0.0, 0.0, 0.0, 0.07, 0.028, 0.986, 192.0, 0.0, 0.0, 0.0, 0.0, 0.0, 0.0, 0.0, 0.0, 0.0, 1.740936390958949E9, 0.0, 2025-03-02 19:26:30.958
254.0, 5439.676992854714, 0.0, 0.0, 0.0, 0.0, 0.0, 0.0, 0.0, 0.07, 0.028, 0.986, 192.0, 0.0, 0.0, 0.0, 0.0, 0.0, 0.0, 0.0, 0.0, 0.0, 1.740936390958972E9, 0.0, 2025-03-02 19:26:30.958
255.0, 5492.85179291389, 0.0, 0.0, 0.0, 0.0, 0.0, 0.0, 0.0, 0.07, 0.028, 0.986, 192.0, 0.0, 0.0, 0.0, 0.0, 0.0, 0.0, 0.0, 0.0, 0.0, 1.740936390958995E9, 0.0, 2025-03-02 19:26:30.958
0.0, 5463.1686762772415, 0.0, 0.0, 0.0, 0.0, 0.0, 0.0, 0.0, 0.07, 0.028, 0.986, 192.0, 0.0, 0.0, 0.0, 0.0, 0.0, 0.0, 0.0, 0.0, 0.0, 1.740936391018104E9, 0.0, 2025-03-02 19:26:31.018
1.0, 5463.660414655258, 0.0, 0.0, 0.0, 0.0, 0.0, 0.0, 0.0, 0.07, 0.028, 0.986, 192.0, 0.0, 0.0, 0.0, 0.0, 0.0, 0.0, 0.0, 0.0, 0.0, 1.740936391018152E9, 0.0, 2025-03-02 19:26:31.018
2.0, 5588.897238838344, 0.0, 0.0, 0.0, 0.0, 0.0, 0.0, 0.0, 0.07, 0.028, 0.986, 192.0, 0.0, 0.0, 0.0, 0.0, 0.0, 0.0, 0.0, 0.0, 0.0, 1.740936391018177E9, 0.0, 2025-03-02 19:26:31.018
3.0, 5608.790291403568, 0.0, 0.0, 0.0, 0.0, 0.0, 0.0, 0.0, 0.07, 0.028, 0.986, 192.0, 0.0, 0.0, 0.0, 0.0, 0.0, 0.0, 0.0, 0.0, 0.0, 1.740936391018201E9, 0.0, 2025-03-02 19:26:31.018
4.0, 5605.124605312897, 0.0, 0.0, 0.0, 0.0, 0.0, 0.0, 0.0, 0.07, 0.028, 0.986, 192.0, 0.0, 0.0, 0.0, 0.0, 0.0, 0.0, 0.0, 0.0, 0.0, 1.740936391018224E9, 0.0, 2025-03-02 19:26:31.018
5.0, 5567.998357772632, 0.0, 0.0, 0.0, 0.0, 0.0, 0.0, 0.0, 0.07, 0.028, 0.986, 192.0, 0.0, 0.0, 0.0, 0.0, 0.0, 0.0, 0.0, 0.0, 0.0, 1.740936391018246E9, 0.0, 2025-03-02 19:26:31.018
6.0, 5628.996268391164, 0.0, 0.0, 0.0, 0.0, 0.0, 0.0, 0.0, 0.07, 0.028, 0.988, 192.0, 2.0, 48.0, 0.0, 224.0, 30.0, 224.0, 0.0, 0.0, 0.0, 1.740936391018269E9, 0.0, 2025-03-02 19:26:31.018
7.0, 5610.936058871277, 0.0, 0.0, 0.0, 0.0, 0.0, 0.0, 0.0, 0.07, 0.028, 0.988, 192.0, 0.0, 0.0, 0.0, 0.0, 0.0, 0.0, 0.0, 0.0, 0.0, 1.740936391018293E9, 0.0, 2025-03-02 19:26:31.018
8.0, 5473.8528101268785, 0.0, 0.0, 0.0, 0.0, 0.0, 0.0, 0.0, 0.07, 0.028, 0.988, 192.0, 0.0, 0.0, 0.0, 0.0, 0.0, 0.0, 0.0, 0.0, 0.0, 1.740936391018316E9, 0.0, 2025-03-02 19:26:31.018
9.0, 5512.2978105900065, 0.0, 0.0, 0.0, 0.0, 0.0, 0.0, 0.0, 0.07, 0.028, 0.988, 192.0, 0.0, 0.0, 0.0, 0.0, 0.0, 0.0, 0.0, 0.0, 0.0, 1.74093639101842E9, 0.0, 2025-03-02 19:26:31.018
10.0, 5541.086857448442, 0.0, 0.0, 0.0, 0.0, 0.0, 0.0, 0.0, 0.07, 0.028, 0.988, 192.0, 0.0, 0.0, 0.0, 0.0, 0.0, 0.0, 0.0, 0.0, 0.0, 1.740936391018466E9, 0.0, 2025-03-02 19:26:31.018
11.0, 5550.206369186208, 0.0, 0.0, 0.0, 0.0, 0.0, 0.0, 0.0, 0.07, 0.028, 0.988, 192.0, 0.0, 0.0, 0.0, 0.0, 0.0, 0.0, 0.0, 0.0, 0.0, 1.74093639101851E9, 0.0, 2025-03-02 19:26:31.018
12.0, 5642.586129019992, 0.0, 0.0, 0.0, 0.0, 0.0, 0.0, 0.0, 0.07, 0.028, 0.988, 192.0, 0.0, 0.0, 0.0, 0.0, 0.0, 0.0, 0.0, 0.0, 0.0, 1.740936391018564E9, 0.0, 2025-03-02 19:26:31.018
13.0, 5595.043968563553, 0.0, 0.0, 0.0, 0.0, 0.0, 0.0, 0.0, 0.07, 0.028, 0.988, 192.0, 0.0, 0.0, 0.0, 0.0, 0.0, 0.0, 0.0, 0.0, 0.0, 1.740936391018587E9, 0.0, 2025-03-02 19:26:31.018
14.0, 5595.625113919391, 0.0, 0.0, 0.0, 0.0, 0.0, 0.0, 0.0, 0.07, 0.028, 0.988, 192.0, 0.0, 0.0, 0.0, 0.0, 0.0, 0.0, 0.0, 0.0, 0.0, 1.740936391018611E9, 0.0, 2025-03-02 19:26:31.018
15.0, 5644.128399387408, 0.0, 0.0, 0.0, 0.0, 0.0, 0.0, 0.0, 0.07, 0.028, 0.988, 192.0, 0.0, 0.0, 0.0, 0.0, 0.0, 0.0, 0.0, 0.0, 0.0, 1.740936391077878E9, 0.0, 2025-03-02 19:26:31.077
16.0, 5598.709654654223, 0.0, 0.0, 0.0, 0.0, 0.0, 0.0, 0.0, 0.078, 0.028, 0.984, 192.0, 2.0, 112.0, 0.0, 224.0, 30.0, 192.0, 0.0, 0.0, 0.0, 1.740936391077929E9, 0.0, 2025-03-02 19:26:31.077
17.0, 5527.42994158625, 0.0, 0.0, 0.0, 0.0, 0.0, 0.0, 0.0, 0.078, 0.028, 0.984, 192.0, 0.0, 0.0, 0.0, 0.0, 0.0, 0.0, 0.0, 0.0, 0.0, 1.740936391077957E9, 0.0, 2025-03-02 19:26:31.077
18.0, 5494.528173748037, 0.0, 0.0, 0.0, 0.0, 0.0, 0.0, 0.0, 0.078, 0.028, 0.984, 192.0, 0.0, 0.0, 0.0, 0.0, 0.0, 0.0, 0.0, 0.0, 0.0, 1.740936391077981E9, 0.0, 2025-03-02 19:26:31.077
19.0, 5361.848218661335, 0.0, 0.0, 0.0, 0.0, 0.0, 0.0, 0.0, 0.078, 0.028, 0.984, 192.0, 0.0, 0.0, 0.0, 0.0, 0.0, 0.0, 0.0, 0.0, 0.0, 1.740936391078003E9, 0.0, 2025-03-02 19:26:31.078
20.0, 5373.716994967102, 0.0, 0.0, 0.0, 0.0, 0.0, 0.0, 0.0, 0.078, 0.028, 0.984, 192.0, 0.0, 0.0, 0.0, 0.0, 0.0, 0.0, 0.0, 0.0, 0.0, 1.740936391078026E9, 0.0, 2025-03-02 19:26:31.078
21.0, 5427.919975271222, 0.0, 0.0, 0.0, 0.0, 0.0, 0.0, 0.0, 0.078, 0.028, 0.984, 192.0, 0.0, 0.0, 0.0, 0.0, 0.0, 0.0, 0.0, 0.0, 0.0, 1.740936391078049E9, 0.0, 2025-03-02 19:26:31.078
22.0, 5390.994893431055, 0.0, 0.0, 0.0, 0.0, 0.0, 0.0, 0.0, 0.078, 0.028, 0.984, 192.0, 0.0, 0.0, 0.0, 0.0, 0.0, 0.0, 0.0, 0.0, 0.0, 1.740936391078071E9, 0.0, 2025-03-02 19:26:31.078
23.0, 5268.909665216168, 0.0, 0.0, 0.0, 0.0, 0.0, 0.0, 0.0, 0.078, 0.028, 0.984, 192.0, 0.0, 0.0, 0.0, 0.0, 0.0, 0.0, 0.0, 0.0, 0.0, 1.740936391078094E9, 0.0, 2025-03-02 19:26:31.078
24.0, 5187.057577020833, 0.0, 0.0, 0.0, 0.0, 0.0, 0.0, 0.0, 0.078, 0.028, 0.984, 192.0, 0.0, 0.0, 0.0, 0.0, 0.0, 0.0, 0.0, 0.0, 0.0, 1.740936391078117E9, 0.0, 2025-03-02 19:26:31.078
25.0, 5209.386969731685, 0.0, 0.0, 0.0, 0.0, 0.0, 0.0, 0.0, 0.078, 0.028, 0.984, 192.0, 0.0, 0.0, 0.0, 0.0, 0.0, 0.0, 0.0, 0.0, 0.0, 1.740936391078139E9, 0.0, 2025-03-02 19:26:31.078
26.0, 5246.960252161057, 0.0, 0.0, 0.0, 0.0, 0.0, 0.0, 0.0, 0.082, 0.03, 0.982, 192.0, 2.0, 144.0, 0.0, 240.0, 30.0, 176.0, 0.0, 0.0, 0.0, 1.740936391078162E9, 0.0, 2025-03-02 19:26:31.078
27.0, 5340.815227128891, 0.0, 0.0, 0.0, 0.0, 0.0, 0.0, 0.0, 0.082, 0.03, 0.982, 192.0, 0.0, 0.0, 0.0, 0.0, 0.0, 0.0, 0.0, 0.0, 0.0, 1.740936391078237E9, 0.0, 2025-03-02 19:26:31.078
28.0, 5362.317605294897, 0.0, 0.0, 0.0, 0.0, 0.0, 0.0, 0.0, 0.082, 0.03, 0.982, 192.0, 0.0, 0.0, 0.0, 0.0, 0.0, 0.0, 0.0, 0.0, 0.0, 1.740936391078261E9, 0.0, 2025-03-02 19:26:31.078
29.0, 5351.499360978528, 0.0, 0.0, 0.0, 0.0, 0.0, 0.0, 0.0, 0.082, 0.03, 0.982, 192.0, 0.0, 0.0, 0.0, 0.0, 0.0, 0.0, 0.0, 0.0, 0.0, 1.740936391078284E9, 0.0, 2025-03-02 19:26:31.078
30.0, 5440.682821355203, 0.0, 0.0, 0.0, 0.0, 0.0, 0.0, 0.0, 0.082, 0.03, 0.982, 192.0, 0.0, 0.0, 0.0, 0.0, 0.0, 0.0, 0.0, 0.0, 0.0, 1.740936391138096E9, 0.0, 2025-03-02 19:26:31.138
31.0, 5543.746715038624, 0.0, 0.0, 0.0, 0.0, 0.0, 0.0, 0.0, 0.082, 0.03, 0.982, 192.0, 0.0, 0.0, 0.0, 0.0, 0.0, 0.0, 0.0, 0.0, 0.0, 1.740936391138142E9, 0.0, 2025-03-02 19:26:31.138
32.0, 5518.75746473759, 0.0, 0.0, 0.0, 0.0, 0.0, 0.0, 0.0, 0.082, 0.03, 0.982, 192.0, 0.0, 0.0, 0.0, 0.0, 0.0, 0.0, 0.0, 0.0, 0.0, 1.740936391138168E9, 0.0, 2025-03-02 19:26:31.138
33.0, 5451.568120904937, 0.0, 0.0, 0.0, 0.0, 0.0, 0.0, 0.0, 0.082, 0.03, 0.982, 192.0, 0.0, 0.0, 0.0, 0.0, 0.0, 0.0, 0.0, 0.0, 0.0, 1.740936391138191E9, 0.0, 2025-03-02 19:26:31.138
34.0, 5675.778469536122, 0.0, 0.0, 0.0, 0.0, 0.0, 0.0, 0.0, 0.082, 0.03, 0.982, 192.0, 0.0, 0.0, 0.0, 0.0, 0.0, 0.0, 0.0, 0.0, 0.0, 1.740936391138214E9, 0.0, 2025-03-02 19:26:31.138
35.0, 6193.288408909847, 0.0, 0.0, 0.0, 0.0, 0.0, 0.0, 0.0, 0.078, 0.032, 0.98, 192.0, 2.0, 112.0, 1.0, 0.0, 30.0, 160.0, 0.0, 0.0, 0.0, 1.740936391138237E9, 0.0, 2025-03-02 19:26:31.138
36.0, 6610.282553468055, 0.0, 0.0, 0.0, 0.0, 0.0, 0.0, 0.0, 0.078, 0.032, 0.98, 192.0, 0.0, 0.0, 0.0, 0.0, 0.0, 0.0, 0.0, 0.0, 0.0, 1.740936391138262E9, 0.0, 2025-03-02 19:26:31.138
37.0, 6673.470935043209, 0.0, 0.0, 0.0, 0.0, 0.0, 0.0, 0.0, 0.078, 0.032, 0.98, 192.0, 0.0, 0.0, 0.0, 0.0, 0.0, 0.0, 0.0, 0.0, 0.0, 1.740936391138284E9, 0.0, 2025-03-02 19:26:31.138
38.0, 6474.406298924244, 0.0, 0.0, 0.0, 0.0, 0.0, 0.0, 0.0, 0.078, 0.032, 0.98, 192.0, 0.0, 0.0, 0.0, 0.0, 0.0, 0.0, 0.0, 0.0, 0.0, 1.740936391138307E9, 0.0, 2025-03-02 19:26:31.138
39.0, 6315.619506313742, 0.0, 0.0, 0.0, 0.0, 0.0, 0.0, 0.0, 0.078, 0.032, 0.98, 192.0, 0.0, 0.0, 0.0, 0.0, 0.0, 0.0, 0.0, 0.0, 0.0, 1.74093639113833E9, 0.0, 2025-03-02 19:26:31.138
40.0, 6110.20697476947, 0.0, 0.0, 0.0, 0.0, 0.0, 0.0, 0.0, 0.078, 0.032, 0.98, 192.0, 0.0, 0.0, 0.0, 0.0, 0.0, 0.0, 0.0, 0.0, 0.0, 1.740936391138353E9, 0.0, 2025-03-02 19:26:31.138
41.0, 5629.465655024726, 0.0, 0.0, 0.0, 0.0, 0.0, 0.0, 0.0, 0.078, 0.032, 0.98, 192.0, 0.0, 0.0, 0.0, 0.0, 0.0, 0.0, 0.0, 0.0, 0.0, 1.740936391138375E9, 0.0, 2025-03-02 19:26:31.138
42.0, 5337.037782315944, 0.0, 0.0, 0.0, 0.0, 0.0, 0.0, 0.0, 0.078, 0.032, 0.98, 192.0, 0.0, 0.0, 0.0, 0.0, 0.0, 0.0, 0.0, 0.0, 0.0, 1.740936391138398E9, 0.0, 2025-03-02 19:26:31.138
43.0, 5149.283128891365, 0.0, 0.0, 0.0, 0.0, 0.0, 0.0, 0.0, 0.078, 0.032, 0.98, 192.0, 0.0, 0.0, 0.0, 0.0, 0.0, 0.0, 0.0, 0.0, 0.0, 1.740936391138421E9, 0.0, 2025-03-02 19:26:31.138
44.0, 5098.1199858331665, 0.0, 0.0, 0.0, 0.0, 0.0, 0.0, 0.0, 0.078, 0.032, 0.98, 192.0, 0.0, 0.0, 0.0, 0.0, 0.0, 0.0, 0.0, 0.0, 0.0, 1.740936391138444E9, 0.0, 2025-03-02 19:26:31.138
45.0, 5216.6959901685705, 0.0, 0.0, 0.0, 0.0, 0.0, 0.0, 0.0, 0.07, 0.028, 0.986, 192.0, 2.0, 48.0, 0.0, 224.0, 30.0, 208.0, 0.0, 0.0, 0.0, 1.740936391198368E9, 0.0, 2025-03-02 19:26:31.198
46.0, 5261.824162223836, 0.0, 0.0, 0.0, 0.0, 0.0, 0.0, 0.0, 0.07, 0.028, 0.986, 192.0, 0.0, 0.0, 0.0, 0.0, 0.0, 0.0, 0.0, 0.0, 0.0, 1.740936391198433E9, 0.0, 2025-03-02 19:26:31.198
47.0, 5195.819460847314, 0.0, 0.0, 0.0, 0.0, 0.0, 0.0, 0.0, 0.07, 0.028, 0.986, 192.0, 0.0, 0.0, 0.0, 0.0, 0.0, 0.0, 0.0, 0.0, 0.0, 1.740936391198478E9, 0.0, 2025-03-02 19:26:31.198
48.0, 5088.8440118842145, 0.0, 0.0, 0.0, 0.0, 0.0, 0.0, 0.0, 0.07, 0.028, 0.986, 192.0, 0.0, 0.0, 0.0, 0.0, 0.0, 0.0, 0.0, 0.0, 0.0, 1.740936391198529E9, 0.0, 2025-03-02 19:26:31.198
49.0, 5056.009299279368, 0.0, 0.0, 0.0, 0.0, 0.0, 0.0, 0.0, 0.07, 0.028, 0.986, 192.0, 0.0, 0.0, 0.0, 0.0, 0.0, 0.0, 0.0, 0.0, 0.0, 1.740936391198554E9, 0.0, 2025-03-02 19:26:31.198
50.0, 5091.392110752119, 0.0, 0.0, 0.0, 0.0, 0.0, 0.0, 0.0, 0.07, 0.028, 0.986, 192.0, 0.0, 0.0, 0.0, 0.0, 0.0, 0.0, 0.0, 0.0, 0.0, 1.740936391198577E9, 0.0, 2025-03-02 19:26:31.198
51.0, 5126.797273969326, 0.0, 0.0, 0.0, 0.0, 0.0, 0.0, 0.0, 0.07, 0.028, 0.986, 192.0, 0.0, 0.0, 0.0, 0.0, 0.0, 0.0, 0.0, 0.0, 0.0, 1.7409363911986E9, 0.0, 2025-03-02 19:26:31.198
52.0, 5142.756419510415, 0.0, 0.0, 0.0, 0.0, 0.0, 0.0, 0.0, 0.07, 0.028, 0.986, 192.0, 0.0, 0.0, 0.0, 0.0, 0.0, 0.0, 0.0, 0.0, 0.0, 1.740936391198623E9, 0.0, 2025-03-02 19:26:31.198
53.0, 5002.9686096869245, 0.0, 0.0, 0.0, 0.0, 0.0, 0.0, 0.0, 0.07, 0.028, 0.986, 192.0, 0.0, 0.0, 0.0, 0.0, 0.0, 0.0, 0.0, 0.0, 0.0, 1.740936391198646E9, 0.0, 2025-03-02 19:26:31.198
54.0, 5067.00635755138, 0.0, 0.0, 0.0, 0.0, 0.0, 0.0, 0.0, 0.07, 0.028, 0.986, 192.0, 0.0, 0.0, 0.0, 0.0, 0.0, 0.0, 0.0, 0.0, 0.0, 1.740936391198669E9, 0.0, 2025-03-02 19:26:31.198
55.0, 5355.746192425036, 0.0, 0.0, 0.0, 0.0, 0.0, 0.0, 0.0, 0.074, 0.03, 0.986, 192.0, 2.0, 80.0, 0.0, 240.0, 30.0, 208.0, 0.0, 0.0, 0.0, 1.740936391198692E9, 0.0, 2025-03-02 19:26:31.198
56.0, 5399.041521434966, 0.0, 0.0, 0.0, 0.0, 0.0, 0.0, 0.0, 0.074, 0.03, 0.986, 192.0, 0.0, 0.0, 0.0, 0.0, 0.0, 0.0, 0.0, 0.0, 0.0, 1.740936391198716E9, 0.0, 2025-03-02 19:26:31.198
57.0, 5253.576368519827, 0.0, 0.0, 0.0, 0.0, 0.0, 0.0, 0.0, 0.074, 0.03, 0.986, 192.0, 0.0, 0.0, 0.0, 0.0, 0.0, 0.0, 0.0, 0.0, 0.0, 1.740936391198739E9, 0.0, 2025-03-02 19:26:31.198
58.0, 5158.02266097339, 0.0, 0.0, 0.0, 0.0, 0.0, 0.0, 0.0, 0.074, 0.03, 0.986, 192.0, 0.0, 0.0, 0.0, 0.0, 0.0, 0.0, 0.0, 0.0, 0.0, 1.740936391198763E9, 0.0, 2025-03-02 19:26:31.198
59.0, 5080.082128057734, 0.0, 0.0, 0.0, 0.0, 0.0, 0.0, 0.0, 0.074, 0.03, 0.986, 192.0, 0.0, 0.0, 0.0, 0.0, 0.0, 0.0, 0.0, 0.0, 0.0, 1.740936391198785E9, 0.0, 2025-03-02 19:26:31.198
60.0, 5244.076877126322, 0.0, 0.0, 0.0, 0.0, 0.0, 0.0, 0.0, 0.074, 0.03, 0.986, 192.0, 0.0, 0.0, 0.0, 0.0, 0.0, 0.0, 0.0, 0.0, 0.0, 1.740936391258681E9, 0.0, 2025-03-02 19:26:31.258
61.0, 5471.304711258974, 0.0, 0.0, 0.0, 0.0, 0.0, 0.0, 0.0, 0.074, 0.03, 0.986, 192.0, 0.0, 0.0, 0.0, 0.0, 0.0, 0.0, 0.0, 0.0, 0.0, 1.740936391258727E9, 0.0, 2025-03-02 19:26:31.258
62.0, 5503.558278507981, 0.0, 0.0, 0.0, 0.0, 0.0, 0.0, 0.0, 0.074, 0.03, 0.986, 192.0, 0.0, 0.0, 0.0, 0.0, 0.0, 0.0, 0.0, 0.0, 0.0, 1.740936391258801E9, 0.0, 2025-03-02 19:26:31.258
63.0, 5377.360329313317, 0.0, 0.0, 0.0, 0.0, 0.0, 0.0, 0.0, 0.074, 0.03, 0.986, 192.0, 0.0, 0.0, 0.0, 0.0, 0.0, 0.0, 0.0, 0.0, 0.0, 1.740936391258826E9, 0.0, 2025-03-02 19:26:31.258
64.0, 5375.929817668178, 0.0, 0.0, 0.0, 0.0, 0.0, 0.0, 0.0, 0.074, 0.03, 0.986, 192.0, 0.0, 0.0, 0.0, 0.0, 0.0, 0.0, 0.0, 0.0, 0.0, 1.740936391258849E9, 0.0, 2025-03-02 19:26:31.258
65.0, 5544.081991205453, 0.0, 0.0, 0.0, 0.0, 0.0, 0.0, 0.0, 0.074, 0.032, 0.984, 192.0, 2.0, 80.0, 1.0, 0.0, 30.0, 192.0, 0.0, 0.0, 0.0, 1.740936391258872E9, 0.0, 2025-03-02 19:26:31.258
66.0, 5719.945516579809, 0.0, 0.0, 0.0, 0.0, 0.0, 0.0, 0.0, 0.074, 0.032, 0.984, 192.0, 0.0, 0.0, 0.0, 0.0, 0.0, 0.0, 0.0, 0.0, 0.0, 1.740936391258896E9, 0.0, 2025-03-02 19:26:31.258
67.0, 5754.657775718901, 0.0, 0.0, 0.0, 0.0, 0.0, 0.0, 0.0, 0.074, 0.032, 0.984, 192.0, 0.0, 0.0, 0.0, 0.0, 0.0, 0.0, 0.0, 0.0, 0.0, 1.740936391258919E9, 0.0, 2025-03-02 19:26:31.258
68.0, 5758.546979254124, 0.0, 0.0, 0.0, 0.0, 0.0, 0.0, 0.0, 0.074, 0.032, 0.984, 192.0, 0.0, 0.0, 0.0, 0.0, 0.0, 0.0, 0.0, 0.0, 0.0, 1.740936391258941E9, 0.0, 2025-03-02 19:26:31.258
69.0, 5819.679000339389, 0.0, 0.0, 0.0, 0.0, 0.0, 0.0, 0.0, 0.074, 0.032, 0.984, 192.0, 0.0, 0.0, 0.0, 0.0, 0.0, 0.0, 0.0, 0.0, 0.0, 1.740936391258964E9, 0.0, 2025-03-02 19:26:31.258
70.0, 5972.117897524584, 0.0, 0.0, 0.0, 0.0, 0.0, 0.0, 0.0, 0.074, 0.032, 0.984, 192.0, 0.0, 0.0, 0.0, 0.0, 0.0, 0.0, 0.0, 0.0, 0.0, 1.740936391259019E9, 0.0, 2025-03-02 19:26:31.259
71.0, 6013.7591974448205, 0.0, 0.0, 0.0, 0.0, 0.0, 0.0, 0.0, 0.074, 0.032, 0.984, 192.0, 0.0, 0.0, 0.0, 0.0, 0.0, 0.0, 0.0, 0.0, 0.0, 1.740936391259042E9, 0.0, 2025-03-02 19:26:31.259
72.0, 5859.196884536372, 0.0, 0.0, 0.0, 0.0, 0.0, 0.0, 0.0, 0.074, 0.032, 0.984, 192.0, 0.0, 0.0, 0.0, 0.0, 0.0, 0.0, 0.0, 0.0, 0.0, 1.740936391259065E9, 0.0, 2025-03-02 19:26:31.259
73.0, 5768.672319492379, 0.0, 0.0, 0.0, 0.0, 0.0, 0.0, 0.0, 0.074, 0.032, 0.984, 192.0, 0.0, 0.0, 0.0, 0.0, 0.0, 0.0, 0.0, 0.0, 0.0, 1.740936391259088E9, 0.0, 2025-03-02 19:26:31.259
74.0, 5752.71317395129, 0.0, 0.0, 0.0, 0.0, 0.0, 0.0, 0.0, 0.074, 0.032, 0.984, 192.0, 0.0, 0.0, 0.0, 0.0, 0.0, 0.0, 0.0, 0.0, 0.0, 1.740936391259111E9, 0.0, 2025-03-02 19:26:31.259
75.0, 5870.64097769749, 0.0, 0.0, 0.0, 0.0, 0.0, 0.0, 0.0, 0.078, 0.02, 0.988, 192.0, 2.0, 112.0, 0.0, 160.0, 30.0, 224.0, 0.0, 0.0, 0.0, 1.740936391318051E9, 0.0, 2025-03-02 19:26:31.318
76.0, 5960.204417729905, 0.0, 0.0, 0.0, 0.0, 0.0, 0.0, 0.0, 0.078, 0.02, 0.988, 192.0, 0.0, 0.0, 0.0, 0.0, 0.0, 0.0, 0.0, 0.0, 0.0, 1.740936391318099E9, 0.0, 2025-03-02 19:26:31.318
77.0, 6009.177089831483, 0.0, 0.0, 0.0, 0.0, 0.0, 0.0, 0.0, 0.078, 0.02, 0.988, 192.0, 0.0, 0.0, 0.0, 0.0, 0.0, 0.0, 0.0, 0.0, 0.0, 1.740936391318124E9, 0.0, 2025-03-02 19:26:31.318
78.0, 5860.046250825674, 0.0, 0.0, 0.0, 0.0, 0.0, 0.0, 0.0, 0.078, 0.02, 0.988, 192.0, 0.0, 0.0, 0.0, 0.0, 0.0, 0.0, 0.0, 0.0, 0.0, 1.740936391318148E9, 0.0, 2025-03-02 19:26:31.318
79.0, 5727.2545370166945, 0.0, 0.0, 0.0, 0.0, 0.0, 0.0, 0.0, 0.078, 0.02, 0.988, 192.0, 0.0, 0.0, 0.0, 0.0, 0.0, 0.0, 0.0, 0.0, 0.0, 1.740936391318171E9, 0.0, 2025-03-02 19:26:31.318
80.0, 5801.998770475241, 0.0, 0.0, 0.0, 0.0, 0.0, 0.0, 0.0, 0.078, 0.02, 0.988, 192.0, 0.0, 0.0, 0.0, 0.0, 0.0, 0.0, 0.0, 0.0, 0.0, 1.740936391318239E9, 0.0, 2025-03-02 19:26:31.318
81.0, 5945.474618133858, 0.0, 0.0, 0.0, 0.0, 0.0, 0.0, 0.0, 0.078, 0.02, 0.988, 192.0, 0.0, 0.0, 0.0, 0.0, 0.0, 0.0, 0.0, 0.0, 0.0, 1.740936391318262E9, 0.0, 2025-03-02 19:26:31.318
82.0, 5964.294786965226, 0.0, 0.0, 0.0, 0.0, 0.0, 0.0, 0.0, 0.078, 0.02, 0.988, 192.0, 0.0, 0.0, 0.0, 0.0, 0.0, 0.0, 0.0, 0.0, 0.0, 1.740936391318285E9, 0.0, 2025-03-02 19:26:31.318
83.0, 5887.136565105506, 0.0, 0.0, 0.0, 0.0, 0.0, 0.0, 0.0, 0.078, 0.02, 0.988, 192.0, 0.0, 0.0, 0.0, 0.0, 0.0, 0.0, 0.0, 0.0, 0.0, 1.740936391318308E9, 0.0, 2025-03-02 19:26:31.318
84.0, 5817.265011938216, 0.0, 0.0, 0.0, 0.0, 0.0, 0.0, 0.0, 0.07200000000000001, 0.022, 0.982, 192.0, 2.0, 64.0, 0.0, 176.0, 30.0, 176.0, 0.0, 0.0, 0.0, 1.74093639131833E9, 0.0, 2025-03-02 19:26:31.318
85.0, 5885.527239504724, 0.0, 0.0, 0.0, 0.0, 0.0, 0.0, 0.0, 0.07200000000000001, 0.022, 0.982, 192.0, 0.0, 0.0, 0.0, 0.0, 0.0, 0.0, 0.0, 0.0, 0.0, 1.740936391318354E9, 0.0, 2025-03-02 19:26:31.318
86.0, 5968.429859689458, 0.0, 0.0, 0.0, 0.0, 0.0, 0.0, 0.0, 0.07200000000000001, 0.022, 0.982, 192.0, 0.0, 0.0, 0.0, 0.0, 0.0, 0.0, 0.0, 0.0, 0.0, 1.740936391318378E9, 0.0, 2025-03-02 19:26:31.318
87.0, 6031.752351731343, 0.0, 0.0, 0.0, 0.0, 0.0, 0.0, 0.0, 0.07200000000000001, 0.022, 0.982, 192.0, 0.0, 0.0, 0.0, 0.0, 0.0, 0.0, 0.0, 0.0, 0.0, 1.7409363913184E9, 0.0, 2025-03-02 19:26:31.318
88.0, 5956.538731639234, 0.0, 0.0, 0.0, 0.0, 0.0, 0.0, 0.0, 0.07200000000000001, 0.022, 0.982, 192.0, 0.0, 0.0, 0.0, 0.0, 0.0, 0.0, 0.0, 0.0, 0.0, 1.740936391318423E9, 0.0, 2025-03-02 19:26:31.318
89.0, 5806.402064132937, 0.0, 0.0, 0.0, 0.0, 0.0, 0.0, 0.0, 0.07200000000000001, 0.022, 0.982, 192.0, 0.0, 0.0, 0.0, 0.0, 0.0, 0.0, 0.0, 0.0, 0.0, 1.740936391318446E9, 0.0, 2025-03-02 19:26:31.318
90.0, 5881.503925502769, 0.0, 0.0, 0.0, 0.0, 0.0, 0.0, 0.0, 0.07200000000000001, 0.022, 0.982, 192.0, 0.0, 0.0, 0.0, 0.0, 0.0, 0.0, 0.0, 0.0, 0.0, 1.740936391377866E9, 0.0, 2025-03-02 19:26:31.377
91.0, 5935.7516092957985, 0.0, 0.0, 0.0, 0.0, 0.0, 0.0, 0.0, 0.07200000000000001, 0.022, 0.982, 192.0, 0.0, 0.0, 0.0, 0.0, 0.0, 0.0, 0.0, 0.0, 0.0, 1.740936391377913E9, 0.0, 2025-03-02 19:26:31.377
92.0, 5928.487292347824, 0.0, 0.0, 0.0, 0.0, 0.0, 0.0, 0.0, 0.07200000000000001, 0.022, 0.982, 192.0, 0.0, 0.0, 0.0, 0.0, 0.0, 0.0, 0.0, 0.0, 0.0, 1.740936391377939E9, 0.0, 2025-03-02 19:26:31.377
93.0, 5884.722576704333, 0.0, 0.0, 0.0, 0.0, 0.0, 0.0, 0.0, 0.07200000000000001, 0.022, 0.982, 192.0, 0.0, 0.0, 0.0, 0.0, 0.0, 0.0, 0.0, 0.0, 0.0, 1.740936391377962E9, 0.0, 2025-03-02 19:26:31.377
94.0, 5829.424360921903, 0.0, 0.0, 0.0, 0.0, 0.0, 0.0, 0.0, 0.07, 0.022, 0.984, 192.0, 2.0, 48.0, 0.0, 176.0, 30.0, 192.0, 0.0, 0.0, 0.0, 1.740936391377985E9, 0.0, 2025-03-02 19:26:31.377
95.0, 5907.096672904096, 0.0, 0.0, 0.0, 0.0, 0.0, 0.0, 0.0, 0.07, 0.022, 0.984, 192.0, 0.0, 0.0, 0.0, 0.0, 0.0, 0.0, 0.0, 0.0, 0.0, 1.74093639137801E9, 0.0, 2025-03-02 19:26:31.378
96.0, 5967.558141655701, 0.0, 0.0, 0.0, 0.0, 0.0, 0.0, 0.0, 0.07, 0.022, 0.984, 192.0, 0.0, 0.0, 0.0, 0.0, 0.0, 0.0, 0.0, 0.0, 0.0, 1.740936391378033E9, 0.0, 2025-03-02 19:26:31.378
97.0, 5895.674931487433, 0.0, 0.0, 0.0, 0.0, 0.0, 0.0, 0.0, 0.07, 0.022, 0.984, 192.0, 0.0, 0.0, 0.0, 0.0, 0.0, 0.0, 0.0, 0.0, 0.0, 1.740936391378056E9, 0.0, 2025-03-02 19:26:31.378
98.0, 5878.7546609347655, 0.0, 0.0, 0.0, 0.0, 0.0, 0.0, 0.0, 0.07, 0.022, 0.984, 192.0, 0.0, 0.0, 0.0, 0.0, 0.0, 0.0, 0.0, 0.0, 0.0, 1.740936391378129E9, 0.0, 2025-03-02 19:26:31.378
99.0, 5804.971552487797, 0.0, 0.0, 0.0, 0.0, 0.0, 0.0, 0.0, 0.07, 0.022, 0.984, 192.0, 0.0, 0.0, 0.0, 0.0, 0.0, 0.0, 0.0, 0.0, 0.0, 1.740936391378152E9, 0.0, 2025-03-02 19:26:31.378
100.0, 5796.4555378503255, 0.0, 0.0, 0.0, 0.0, 0.0, 0.0, 0.0, 0.07, 0.022, 0.984, 192.0, 0.0, 0.0, 0.0, 0.0, 0.0, 0.0, 0.0, 0.0, 0.0, 1.740936391378175E9, 0.0, 2025-03-02 19:26:31.378
101.0, 5816.10272122654, 0.0, 0.0, 0.0, 0.0, 0.0, 0.0, 0.0, 0.07, 0.022, 0.984, 192.0, 0.0, 0.0, 0.0, 0.0, 0.0, 0.0, 0.0, 0.0, 0.0, 1.740936391378199E9, 0.0, 2025-03-02 19:26:31.378
102.0, 5841.449599438858, 0.0, 0.0, 0.0, 0.0, 0.0, 0.0, 0.0, 0.07, 0.022, 0.984, 192.0, 0.0, 0.0, 0.0, 0.0, 0.0, 0.0, 0.0, 0.0, 0.0, 1.740936391378222E9, 0.0, 2025-03-02 19:26:31.378
103.0, 5761.050374633119, 0.0, 0.0, 0.0, 0.0, 0.0, 0.0, 0.0, 0.07, 0.022, 0.984, 192.0, 0.0, 0.0, 0.0, 0.0, 0.0, 0.0, 0.0, 0.0, 0.0, 1.740936391378246E9, 0.0, 2025-03-02 19:26:31.378
104.0, 5738.162188310885, 0.0, 0.0, 0.0, 0.0, 0.0, 0.0, 0.0, 0.074, 0.024, 0.976, 192.0, 2.0, 80.0, 0.0, 192.0, 30.0, 128.0, 0.0, 0.0, 0.0, 1.740936391378269E9, 0.0, 2025-03-02 19:26:31.378
105.0, 5795.449709349837, 0.0, 0.0, 0.0, 0.0, 0.0, 0.0, 0.0, 0.074, 0.024, 0.976, 192.0, 0.0, 0.0, 0.0, 0.0, 0.0, 0.0, 0.0, 0.0, 0.0, 1.74093639143803E9, 0.0, 2025-03-02 19:26:31.438
106.0, 5756.825894931066, 0.0, 0.0, 0.0, 0.0, 0.0, 0.0, 0.0, 0.074, 0.024, 0.976, 192.0, 0.0, 0.0, 0.0, 0.0, 0.0, 0.0, 0.0, 0.0, 0.0, 1.740936391438093E9, 0.0, 2025-03-02 19:26:31.438
107.0, 5761.85503743351, 0.0, 0.0, 0.0, 0.0, 0.0, 0.0, 0.0, 0.074, 0.024, 0.976, 192.0, 0.0, 0.0, 0.0, 0.0, 0.0, 0.0, 0.0, 0.0, 0.0, 1.740936391438119E9, 0.0, 2025-03-02 19:26:31.438
108.0, 5634.941832416276, 0.0, 0.0, 0.0, 0.0, 0.0, 0.0, 0.0, 0.074, 0.024, 0.976, 192.0, 0.0, 0.0, 0.0, 0.0, 0.0, 0.0, 0.0, 0.0, 0.0, 1.740936391438149E9, 0.0, 2025-03-02 19:26:31.438
109.0, 5660.847504239978, 0.0, 0.0, 0.0, 0.0, 0.0, 0.0, 0.0, 0.074, 0.024, 0.976, 192.0, 0.0, 0.0, 0.0, 0.0, 0.0, 0.0, 0.0, 0.0, 0.0, 1.740936391438172E9, 0.0, 2025-03-02 19:26:31.438
110.0, 5684.808574296067, 0.0, 0.0, 0.0, 0.0, 0.0, 0.0, 0.0, 0.074, 0.024, 0.976, 192.0, 0.0, 0.0, 0.0, 0.0, 0.0, 0.0, 0.0, 0.0, 0.0, 1.740936391438195E9, 0.0, 2025-03-02 19:26:31.438
111.0, 5713.999952554697, 0.0, 0.0, 0.0, 0.0, 0.0, 0.0, 0.0, 0.074, 0.024, 0.976, 192.0, 0.0, 0.0, 0.0, 0.0, 0.0, 0.0, 0.0, 0.0, 0.0, 1.740936391438218E9, 0.0, 2025-03-02 19:26:31.438
112.0, 5698.353731435983, 0.0, 0.0, 0.0, 0.0, 0.0, 0.0, 0.0, 0.074, 0.024, 0.976, 192.0, 0.0, 0.0, 0.0, 0.0, 0.0, 0.0, 0.0, 0.0, 0.0, 1.740936391438242E9, 0.0, 2025-03-02 19:26:31.438
113.0, 5591.490041195159, 0.0, 0.0, 0.0, 0.0, 0.0, 0.0, 0.0, 0.074, 0.024, 0.976, 192.0, 0.0, 0.0, 0.0, 0.0, 0.0, 0.0, 0.0, 0.0, 0.0, 1.740936391438265E9, 0.0, 2025-03-02 19:26:31.438
114.0, 5532.682601533246, 0.0, 0.0, 0.0, 0.0, 0.0, 0.0, 0.0, 0.08, 0.026000000000000002, 0.978, 192.0, 2.0, 128.0, 0.0, 208.0, 30.0, 144.0, 0.0, 0.0, 0.0, 1.740936391438288E9, 0.0, 2025-03-02 19:26:31.438
115.0, 5586.729119626179, 0.0, 0.0, 0.0, 0.0, 0.0, 0.0, 0.0, 0.08, 0.026000000000000002, 0.978, 192.0, 0.0, 0.0, 0.0, 0.0, 0.0, 0.0, 0.0, 0.0, 0.0, 1.740936391438368E9, 0.0, 2025-03-02 19:26:31.438
116.0, 5575.888523565355, 0.0, 0.0, 0.0, 0.0, 0.0, 0.0, 0.0, 0.08, 0.026000000000000002, 0.978, 192.0, 0.0, 0.0, 0.0, 0.0, 0.0, 0.0, 0.0, 0.0, 0.0, 1.740936391438392E9, 0.0, 2025-03-02 19:26:31.438
117.0, 5562.499828636626, 0.0, 0.0, 0.0, 0.0, 0.0, 0.0, 0.0, 0.08, 0.026000000000000002, 0.978, 192.0, 0.0, 0.0, 0.0, 0.0, 0.0, 0.0, 0.0, 0.0, 0.0, 1.740936391438415E9, 0.0, 2025-03-02 19:26:31.438
118.0, 5481.60886545287, 0.0, 0.0, 0.0, 0.0, 0.0, 0.0, 0.0, 0.08, 0.026000000000000002, 0.978, 192.0, 0.0, 0.0, 0.0, 0.0, 0.0, 0.0, 0.0, 0.0, 0.0, 1.740936391438438E9, 0.0, 2025-03-02 19:26:31.438
119.0, 5445.019059779533, 0.0, 0.0, 0.0, 0.0, 0.0, 0.0, 0.0, 0.08, 0.026000000000000002, 0.978, 192.0, 0.0, 0.0, 0.0, 0.0, 0.0, 0.0, 0.0, 0.0, 0.0, 1.740936391438461E9, 0.0, 2025-03-02 19:26:31.438
120.0, 5491.242467313107, 0.0, 0.0, 0.0, 0.0, 0.0, 0.0, 0.0, 0.08, 0.026000000000000002, 0.978, 192.0, 0.0, 0.0, 0.0, 0.0, 0.0, 0.0, 0.0, 0.0, 0.0, 1.740936391498414E9, 0.0, 2025-03-02 19:26:31.498
121.0, 5540.013973714587, 0.0, 0.0, 0.0, 0.0, 0.0, 0.0, 0.0, 0.08, 0.026000000000000002, 0.978, 192.0, 0.0, 0.0, 0.0, 0.0, 0.0, 0.0, 0.0, 0.0, 0.0, 1.740936391498481E9, 0.0, 2025-03-02 19:26:31.498
122.0, 5538.00231671361, 0.0, 0.0, 0.0, 0.0, 0.0, 0.0, 0.0, 0.08, 0.026000000000000002, 0.978, 192.0, 0.0, 0.0, 0.0, 0.0, 0.0, 0.0, 0.0, 0.0, 0.0, 1.740936391498541E9, 0.0, 2025-03-02 19:26:31.498
123.0, 5513.974191424155, 0.0, 0.0, 0.0, 0.0, 0.0, 0.0, 0.0, 0.078, 0.022, 0.986, 192.0, 2.0, 112.0, 0.0, 176.0, 30.0, 208.0, 0.0, 0.0, 0.0, 1.740936391498582E9, 0.0, 2025-03-02 19:26:31.498
124.0, 5438.626460865315, 0.0, 0.0, 0.0, 0.0, 0.0, 0.0, 0.0, 0.078, 0.022, 0.986, 192.0, 0.0, 0.0, 0.0, 0.0, 0.0, 0.0, 0.0, 0.0, 0.0, 1.740936391498624E9, 0.0, 2025-03-02 19:26:31.498
125.0, 5487.397967266795, 0.0, 0.0, 0.0, 0.0, 0.0, 0.0, 0.0, 0.078, 0.022, 0.986, 192.0, 0.0, 0.0, 0.0, 0.0, 0.0, 0.0, 0.0, 0.0, 0.0, 1.740936391498664E9, 0.0, 2025-03-02 19:26:31.498
126.0, 5561.404593158316, 0.0, 0.0, 0.0, 0.0, 0.0, 0.0, 0.0, 0.078, 0.022, 0.986, 192.0, 0.0, 0.0, 0.0, 0.0, 0.0, 0.0, 0.0, 0.0, 0.0, 1.740936391498705E9, 0.0, 2025-03-02 19:26:31.498
127.0, 5596.563887186514, 0.0, 0.0, 0.0, 0.0, 0.0, 0.0, 0.0, 0.078, 0.022, 0.986, 192.0, 0.0, 0.0, 0.0, 0.0, 0.0, 0.0, 0.0, 0.0, 0.0, 1.740936391498744E9, 0.0, 2025-03-02 19:26:31.498
128.0, 5597.033273820076, 0.0, 0.0, 0.0, 0.0, 0.0, 0.0, 0.0, 0.078, 0.022, 0.986, 192.0, 0.0, 0.0, 0.0, 0.0, 0.0, 0.0, 0.0, 0.0, 0.0, 1.740936391498785E9, 0.0, 2025-03-02 19:26:31.498
129.0, 5539.343421380928, 0.0, 0.0, 0.0, 0.0, 0.0, 0.0, 0.0, 0.078, 0.022, 0.986, 192.0, 0.0, 0.0, 0.0, 0.0, 0.0, 0.0, 0.0, 0.0, 0.0, 1.740936391498825E9, 0.0, 2025-03-02 19:26:31.498
130.0, 5562.455125147716, 0.0, 0.0, 0.0, 0.0, 0.0, 0.0, 0.0, 0.078, 0.022, 0.986, 192.0, 0.0, 0.0, 0.0, 0.0, 0.0, 0.0, 0.0, 0.0, 0.0, 1.740936391498866E9, 0.0, 2025-03-02 19:26:31.498
131.0, 5597.167384286808, 0.0, 0.0, 0.0, 0.0, 0.0, 0.0, 0.0, 0.078, 0.022, 0.986, 192.0, 0.0, 0.0, 0.0, 0.0, 0.0, 0.0, 0.0, 0.0, 0.0, 1.740936391498907E9, 0.0, 2025-03-02 19:26:31.498
132.0, 5597.994398831654, 0.0, 0.0, 0.0, 0.0, 0.0, 0.0, 0.0, 0.078, 0.022, 0.986, 192.0, 0.0, 0.0, 0.0, 0.0, 0.0, 0.0, 0.0, 0.0, 0.0, 1.740936391498953E9, 0.0, 2025-03-02 19:26:31.498
133.0, 5516.477586803149, 0.0, 0.0, 0.0, 0.0, 0.0, 0.0, 0.0, 0.074, 0.03, 0.986, 192.0, 2.0, 80.0, 0.0, 240.0, 30.0, 208.0, 0.0, 0.0, 0.0, 1.74093639149906E9, 0.0, 2025-03-02 19:26:31.499
134.0, 5494.2152493256635, 0.0, 0.0, 0.0, 0.0, 0.0, 0.0, 0.0, 0.074, 0.03, 0.986, 192.0, 0.0, 0.0, 0.0, 0.0, 0.0, 0.0, 0.0, 0.0, 0.0, 1.740936391499103E9, 0.0, 2025-03-02 19:26:31.499
135.0, 5577.408442188316, 0.0, 0.0, 0.0, 0.0, 0.0, 0.0, 0.0, 0.074, 0.03, 0.986, 192.0, 0.0, 0.0, 0.0, 0.0, 0.0, 0.0, 0.0, 0.0, 0.0, 1.740936391558749E9, 0.0, 2025-03-02 19:26:31.558
136.0, 5622.514262499126, 0.0, 0.0, 0.0, 0.0, 0.0, 0.0, 0.0, 0.074, 0.03, 0.986, 192.0, 0.0, 0.0, 0.0, 0.0, 0.0, 0.0, 0.0, 0.0, 0.0, 1.740936391558816E9, 0.0, 2025-03-02 19:26:31.558
137.0, 5589.590142916459, 0.0, 0.0, 0.0, 0.0, 0.0, 0.0, 0.0, 0.074, 0.03, 0.986, 192.0, 0.0, 0.0, 0.0, 0.0, 0.0, 0.0, 0.0, 0.0, 0.0, 1.74093639155885E9, 0.0, 2025-03-02 19:26:31.558
138.0, 5478.949007862689, 0.0, 0.0, 0.0, 0.0, 0.0, 0.0, 0.0, 0.074, 0.03, 0.986, 192.0, 0.0, 0.0, 0.0, 0.0, 0.0, 0.0, 0.0, 0.0, 0.0, 1.740936391558875E9, 0.0, 2025-03-02 19:26:31.558
139.0, 5407.848108750357, 0.0, 0.0, 0.0, 0.0, 0.0, 0.0, 0.0, 0.074, 0.03, 0.986, 192.0, 0.0, 0.0, 0.0, 0.0, 0.0, 0.0, 0.0, 0.0, 0.0, 1.740936391558898E9, 0.0, 2025-03-02 19:26:31.558
140.0, 5434.469036396627, 0.0, 0.0, 0.0, 0.0, 0.0, 0.0, 0.0, 0.074, 0.03, 0.986, 192.0, 0.0, 0.0, 0.0, 0.0, 0.0, 0.0, 0.0, 0.0, 0.0, 1.740936391558922E9, 0.0, 2025-03-02 19:26:31.558
141.0, 5432.904414284756, 0.0, 0.0, 0.0, 0.0, 0.0, 0.0, 0.0, 0.074, 0.03, 0.986, 192.0, 0.0, 0.0, 0.0, 0.0, 0.0, 0.0, 0.0, 0.0, 0.0, 1.740936391558945E9, 0.0, 2025-03-02 19:26:31.558
142.0, 5358.495456993039, 0.0, 0.0, 0.0, 0.0, 0.0, 0.0, 0.0, 0.074, 0.03, 0.986, 192.0, 0.0, 0.0, 0.0, 0.0, 0.0, 0.0, 0.0, 0.0, 0.0, 1.740936391558968E9, 0.0, 2025-03-02 19:26:31.558
143.0, 5228.408304263152, 0.0, 0.0, 0.0, 0.0, 0.0, 0.0, 0.0, 0.07, 0.026000000000000002, 0.982, 192.0, 2.0, 48.0, 0.0, 208.0, 30.0, 176.0, 0.0, 0.0, 0.0, 1.740936391558991E9, 0.0, 2025-03-02 19:26:31.558
144.0, 5202.055597550345, 0.0, 0.0, 0.0, 0.0, 0.0, 0.0, 0.0, 0.07, 0.026000000000000002, 0.982, 192.0, 0.0, 0.0, 0.0, 0.0, 0.0, 0.0, 0.0, 0.0, 0.0, 1.740936391559017E9, 0.0, 2025-03-02 19:26:31.559
145.0, 5283.0806712008325, 0.0, 0.0, 0.0, 0.0, 0.0, 0.0, 0.0, 0.07, 0.026000000000000002, 0.982, 192.0, 0.0, 0.0, 0.0, 0.0, 0.0, 0.0, 0.0, 0.0, 0.0, 1.740936391559041E9, 0.0, 2025-03-02 19:26:31.559
146.0, 5304.873622044757, 0.0, 0.0, 0.0, 0.0, 0.0, 0.0, 0.0, 0.07, 0.026000000000000002, 0.982, 192.0, 0.0, 0.0, 0.0, 0.0, 0.0, 0.0, 0.0, 0.0, 0.0, 1.740936391559064E9, 0.0, 2025-03-02 19:26:31.559
147.0, 5292.066072471866, 0.0, 0.0, 0.0, 0.0, 0.0, 0.0, 0.0, 0.07, 0.026000000000000002, 0.982, 192.0, 0.0, 0.0, 0.0, 0.0, 0.0, 0.0, 0.0, 0.0, 0.0, 1.740936391559087E9, 0.0, 2025-03-02 19:26:31.559
148.0, 5202.770853372915, 0.0, 0.0, 0.0, 0.0, 0.0, 0.0, 0.0, 0.07, 0.026000000000000002, 0.982, 192.0, 0.0, 0.0, 0.0, 0.0, 0.0, 0.0, 0.0, 0.0, 0.0, 1.74093639155911E9, 0.0, 2025-03-02 19:26:31.559
149.0, 5208.515251697928, 0.0, 0.0, 0.0, 0.0, 0.0, 0.0, 0.0, 0.07, 0.026000000000000002, 0.982, 192.0, 0.0, 0.0, 0.0, 0.0, 0.0, 0.0, 0.0, 0.0, 0.0, 1.740936391559134E9, 0.0, 2025-03-02 19:26:31.559
150.0, 5326.24188974403, 0.0, 0.0, 0.0, 0.0, 0.0, 0.0, 0.0, 0.07, 0.026000000000000002, 0.982, 192.0, 0.0, 0.0, 0.0, 0.0, 0.0, 0.0, 0.0, 0.0, 0.0, 1.740936391618033E9, 0.0, 2025-03-02 19:26:31.618
151.0, 5333.349744480818, 0.0, 0.0, 0.0, 0.0, 0.0, 0.0, 0.0, 0.07, 0.026000000000000002, 0.982, 192.0, 0.0, 0.0, 0.0, 0.0, 0.0, 0.0, 0.0, 0.0, 0.0, 1.740936391618103E9, 0.0, 2025-03-02 19:26:31.618
152.0, 5271.524819317439, 0.0, 0.0, 0.0, 0.0, 0.0, 0.0, 0.0, 0.07, 0.026000000000000002, 0.982, 192.0, 0.0, 0.0, 0.0, 0.0, 0.0, 0.0, 0.0, 0.0, 0.0, 1.740936391618145E9, 0.0, 2025-03-02 19:26:31.618
153.0, 5195.1489085136545, 0.0, 0.0, 0.0, 0.0, 0.0, 0.0, 0.0, 0.07200000000000001, 0.032, 0.982, 192.0, 2.0, 64.0, 1.0, 0.0, 30.0, 176.0, 0.0, 0.0, 0.0, 1.740936391618183E9, 0.0, 2025-03-02 19:26:31.618
154.0, 5142.108218921211, 0.0, 0.0, 0.0, 0.0, 0.0, 0.0, 0.0, 0.07200000000000001, 0.032, 0.982, 192.0, 0.0, 0.0, 0.0, 0.0, 0.0, 0.0, 0.0, 0.0, 0.0, 1.740936391618221E9, 0.0, 2025-03-02 19:26:31.618
155.0, 5232.722190943025, 0.0, 0.0, 0.0, 0.0, 0.0, 0.0, 0.0, 0.07200000000000001, 0.032, 0.982, 192.0, 0.0, 0.0, 0.0, 0.0, 0.0, 0.0, 0.0, 0.0, 0.0, 1.740936391618261E9, 0.0, 2025-03-02 19:26:31.618
156.0, 5293.585991094827, 0.0, 0.0, 0.0, 0.0, 0.0, 0.0, 0.0, 0.07200000000000001, 0.032, 0.982, 192.0, 0.0, 0.0, 0.0, 0.0, 0.0, 0.0, 0.0, 0.0, 0.0, 1.740936391618302E9, 0.0, 2025-03-02 19:26:31.618
157.0, 5307.198203468109, 0.0, 0.0, 0.0, 0.0, 0.0, 0.0, 0.0, 0.07200000000000001, 0.032, 0.982, 192.0, 0.0, 0.0, 0.0, 0.0, 0.0, 0.0, 0.0, 0.0, 0.0, 1.740936391618341E9, 0.0, 2025-03-02 19:26:31.618
158.0, 5264.841647725302, 0.0, 0.0, 0.0, 0.0, 0.0, 0.0, 0.0, 0.07200000000000001, 0.032, 0.982, 192.0, 0.0, 0.0, 0.0, 0.0, 0.0, 0.0, 0.0, 0.0, 0.0, 1.740936391618383E9, 0.0, 2025-03-02 19:26:31.618
159.0, 5246.826141694324, 0.0, 0.0, 0.0, 0.0, 0.0, 0.0, 0.0, 0.07200000000000001, 0.032, 0.982, 192.0, 0.0, 0.0, 0.0, 0.0, 0.0, 0.0, 0.0, 0.0, 0.0, 1.740936391618423E9, 0.0, 2025-03-02 19:26:31.618
160.0, 5303.532517377439, 0.0, 0.0, 0.0, 0.0, 0.0, 0.0, 0.0, 0.07200000000000001, 0.032, 0.982, 192.0, 0.0, 0.0, 0.0, 0.0, 0.0, 0.0, 0.0, 0.0, 0.0, 1.740936391618462E9, 0.0, 2025-03-02 19:26:31.618
161.0, 5346.20199754262, 0.0, 0.0, 0.0, 0.0, 0.0, 0.0, 0.0, 0.07200000000000001, 0.032, 0.982, 192.0, 0.0, 0.0, 0.0, 0.0, 0.0, 0.0, 0.0, 0.0, 0.0, 1.740936391618503E9, 0.0, 2025-03-02 19:26:31.618
162.0, 5335.763732881991, 0.0, 0.0, 0.0, 0.0, 0.0, 0.0, 0.0, 0.07200000000000001, 0.032, 0.982, 192.0, 0.0, 0.0, 0.0, 0.0, 0.0, 0.0, 0.0, 0.0, 0.0, 1.740936391618571E9, 0.0, 2025-03-02 19:26:31.618
163.0, 5301.029121998444, 0.0, 0.0, 0.0, 0.0, 0.0, 0.0, 0.0, 0.078, 0.028, 0.984, 192.0, 2.0, 112.0, 0.0, 224.0, 30.0, 192.0, 0.0, 0.0, 0.0, 1.740936391618623E9, 0.0, 2025-03-02 19:26:31.618
164.0, 5229.503539741461, 0.0, 0.0, 0.0, 0.0, 0.0, 0.0, 0.0, 0.078, 0.028, 0.984, 192.0, 0.0, 0.0, 0.0, 0.0, 0.0, 0.0, 0.0, 0.0, 0.0, 1.74093639161867E9, 0.0, 2025-03-02 19:26:31.618
165.0, 5258.091420899799, 0.0, 0.0, 0.0, 0.0, 0.0, 0.0, 0.0, 0.078, 0.028, 0.984, 192.0, 0.0, 0.0, 0.0, 0.0, 0.0, 0.0, 0.0, 0.0, 0.0, 1.740936391678506E9, 0.0, 2025-03-02 19:26:31.678
166.0, 5279.347929876796, 0.0, 0.0, 0.0, 0.0, 0.0, 0.0, 0.0, 0.078, 0.028, 0.984, 192.0, 0.0, 0.0, 0.0, 0.0, 0.0, 0.0, 0.0, 0.0, 0.0, 1.740936391678592E9, 0.0, 2025-03-02 19:26:31.678
167.0, 5281.225476411042, 0.0, 0.0, 0.0, 0.0, 0.0, 0.0, 0.0, 0.078, 0.028, 0.984, 192.0, 0.0, 0.0, 0.0, 0.0, 0.0, 0.0, 0.0, 0.0, 0.0, 1.740936391678635E9, 0.0, 2025-03-02 19:26:31.678
168.0, 5280.197296166098, 0.0, 0.0, 0.0, 0.0, 0.0, 0.0, 0.0, 0.078, 0.028, 0.984, 192.0, 0.0, 0.0, 0.0, 0.0, 0.0, 0.0, 0.0, 0.0, 0.0, 1.740936391678742E9, 0.0, 2025-03-02 19:26:31.678
169.0, 5210.213984276532, 0.0, 0.0, 0.0, 0.0, 0.0, 0.0, 0.0, 0.078, 0.028, 0.984, 192.0, 0.0, 0.0, 0.0, 0.0, 0.0, 0.0, 0.0, 0.0, 0.0, 1.740936391678783E9, 0.0, 2025-03-02 19:26:31.678
170.0, 5287.3051509028855, 0.0, 0.0, 0.0, 0.0, 0.0, 0.0, 0.0, 0.078, 0.028, 0.984, 192.0, 0.0, 0.0, 0.0, 0.0, 0.0, 0.0, 0.0, 0.0, 0.0, 1.740936391678823E9, 0.0, 2025-03-02 19:26:31.678
171.0, 5359.545988982438, 0.0, 0.0, 0.0, 0.0, 0.0, 0.0, 0.0, 0.078, 0.028, 0.984, 192.0, 0.0, 0.0, 0.0, 0.0, 0.0, 0.0, 0.0, 0.0, 0.0, 1.740936391678863E9, 0.0, 2025-03-02 19:26:31.678
172.0, 5413.950134986656, 0.0, 0.0, 0.0, 0.0, 0.0, 0.0, 0.0, 0.078, 0.026000000000000002, 0.99, 192.0, 2.0, 112.0, 0.0, 208.0, 30.0, 240.0, 0.0, 0.0, 0.0, 1.740936391678904E9, 0.0, 2025-03-02 19:26:31.678
173.0, 5319.692828618626, 0.0, 0.0, 0.0, 0.0, 0.0, 0.0, 0.0, 0.078, 0.026000000000000002, 0.99, 192.0, 0.0, 0.0, 0.0, 0.0, 0.0, 0.0, 0.0, 0.0, 0.0, 1.740936391678941E9, 0.0, 2025-03-02 19:26:31.678
174.0, 5226.530757728906, 0.0, 0.0, 0.0, 0.0, 0.0, 0.0, 0.0, 0.078, 0.026000000000000002, 0.99, 192.0, 0.0, 0.0, 0.0, 0.0, 0.0, 0.0, 0.0, 0.0, 0.0, 1.740936391678982E9, 0.0, 2025-03-02 19:26:31.678
175.0, 5330.57812816836, 0.0, 0.0, 0.0, 0.0, 0.0, 0.0, 0.0, 0.078, 0.026000000000000002, 0.99, 192.0, 0.0, 0.0, 0.0, 0.0, 0.0, 0.0, 0.0, 0.0, 0.0, 1.740936391679022E9, 0.0, 2025-03-02 19:26:31.679
176.0, 5391.978370187088, 0.0, 0.0, 0.0, 0.0, 0.0, 0.0, 0.0, 0.078, 0.026000000000000002, 0.99, 192.0, 0.0, 0.0, 0.0, 0.0, 0.0, 0.0, 0.0, 0.0, 0.0, 1.740936391679062E9, 0.0, 2025-03-02 19:26:31.679
177.0, 5350.1135528222985, 0.0, 0.0, 0.0, 0.0, 0.0, 0.0, 0.0, 0.078, 0.026000000000000002, 0.99, 192.0, 0.0, 0.0, 0.0, 0.0, 0.0, 0.0, 0.0, 0.0, 0.0, 1.740936391679103E9, 0.0, 2025-03-02 19:26:31.679
178.0, 5260.684223256615, 0.0, 0.0, 0.0, 0.0, 0.0, 0.0, 0.0, 0.078, 0.026000000000000002, 0.99, 192.0, 0.0, 0.0, 0.0, 0.0, 0.0, 0.0, 0.0, 0.0, 0.0, 1.740936391679144E9, 0.0, 2025-03-02 19:26:31.679
179.0, 5214.393760489674, 0.0, 0.0, 0.0, 0.0, 0.0, 0.0, 0.0, 0.078, 0.026000000000000002, 0.99, 192.0, 0.0, 0.0, 0.0, 0.0, 0.0, 0.0, 0.0, 0.0, 0.0, 1.74093639167919E9, 0.0, 2025-03-02 19:26:31.679
180.0, 5319.692828618626, 0.0, 0.0, 0.0, 0.0, 0.0, 0.0, 0.0, 0.078, 0.026000000000000002, 0.99, 192.0, 0.0, 0.0, 0.0, 0.0, 0.0, 0.0, 0.0, 0.0, 0.0, 1.740936391679232E9, 0.0, 2025-03-02 19:26:31.679
181.0, 5367.838486175357, 0.0, 0.0, 0.0, 0.0, 0.0, 0.0, 0.0, 0.078, 0.026000000000000002, 0.99, 192.0, 0.0, 0.0, 0.0, 0.0, 0.0, 0.0, 0.0, 0.0, 0.0, 1.740936391738825E9, 0.0, 2025-03-02 19:26:31.738
182.0, 5378.343806069352, 0.0, 0.0, 0.0, 0.0, 0.0, 0.0, 0.0, 0.076, 0.034, 0.986, 192.0, 2.0, 96.0, 1.0, 16.0, 30.0, 208.0, 0.0, 0.0, 0.0, 1.740936391738895E9, 0.0, 2025-03-02 19:26:31.738
183.0, 5302.951372021601, 0.0, 0.0, 0.0, 0.0, 0.0, 0.0, 0.0, 0.076, 0.034, 0.986, 192.0, 0.0, 0.0, 0.0, 0.0, 0.0, 0.0, 0.0, 0.0, 0.0, 1.740936391738935E9, 0.0, 2025-03-02 19:26:31.738
184.0, 5224.809673405847, 0.0, 0.0, 0.0, 0.0, 0.0, 0.0, 0.0, 0.076, 0.034, 0.986, 192.0, 0.0, 0.0, 0.0, 0.0, 0.0, 0.0, 0.0, 0.0, 0.0, 1.740936391738977E9, 0.0, 2025-03-02 19:26:31.738
185.0, 5333.81913111438, 0.0, 0.0, 0.0, 0.0, 0.0, 0.0, 0.0, 0.076, 0.034, 0.986, 192.0, 0.0, 0.0, 0.0, 0.0, 0.0, 0.0, 0.0, 0.0, 0.0, 1.740936391739016E9, 0.0, 2025-03-02 19:26:31.739
186.0, 5379.416689803206, 0.0, 0.0, 0.0, 0.0, 0.0, 0.0, 0.0, 0.076, 0.034, 0.986, 192.0, 0.0, 0.0, 0.0, 0.0, 0.0, 0.0, 0.0, 0.0, 0.0, 1.740936391739113E9, 0.0, 2025-03-02 19:26:31.739
187.0, 5374.454602534128, 0.0, 0.0, 0.0, 0.0, 0.0, 0.0, 0.0, 0.076, 0.034, 0.986, 192.0, 0.0, 0.0, 0.0, 0.0, 0.0, 0.0, 0.0, 0.0, 0.0, 1.740936391739149E9, 0.0, 2025-03-02 19:26:31.739
188.0, 5303.912497033179, 0.0, 0.0, 0.0, 0.0, 0.0, 0.0, 0.0, 0.076, 0.034, 0.986, 192.0, 0.0, 0.0, 0.0, 0.0, 0.0, 0.0, 0.0, 0.0, 0.0, 1.740936391739187E9, 0.0, 2025-03-02 19:26:31.739
189.0, 5261.645348268193, 0.0, 0.0, 0.0, 0.0, 0.0, 0.0, 0.0, 0.076, 0.034, 0.986, 192.0, 0.0, 0.0, 0.0, 0.0, 0.0, 0.0, 0.0, 0.0, 0.0, 1.740936391739232E9, 0.0, 2025-03-02 19:26:31.739
190.0, 5325.280764732453, 0.0, 0.0, 0.0, 0.0, 0.0, 0.0, 0.0, 0.076, 0.034, 0.986, 192.0, 0.0, 0.0, 0.0, 0.0, 0.0, 0.0, 0.0, 0.0, 0.0, 1.740936391739273E9, 0.0, 2025-03-02 19:26:31.739
191.0, 5355.2768057914745, 0.0, 0.0, 0.0, 0.0, 0.0, 0.0, 0.0, 0.076, 0.034, 0.986, 192.0, 0.0, 0.0, 0.0, 0.0, 0.0, 0.0, 0.0, 0.0, 0.0, 1.740936391739322E9, 0.0, 2025-03-02 19:26:31.739
192.0, 5374.9463409121445, 0.0, 0.0, 0.0, 0.0, 0.0, 0.0, 0.0, 0.076, 0.032, 0.982, 192.0, 2.0, 96.0, 1.0, 0.0, 30.0, 176.0, 0.0, 0.0, 0.0, 1.740936391739373E9, 0.0, 2025-03-02 19:26:31.739
193.0, 5395.1970213886525, 0.0, 0.0, 0.0, 0.0, 0.0, 0.0, 0.0, 0.076, 0.032, 0.982, 192.0, 0.0, 0.0, 0.0, 0.0, 0.0, 0.0, 0.0, 0.0, 0.0, 1.740936391739425E9, 0.0, 2025-03-02 19:26:31.739
194.0, 5321.592726897326, 0.0, 0.0, 0.0, 0.0, 0.0, 0.0, 0.0, 0.076, 0.032, 0.982, 192.0, 0.0, 0.0, 0.0, 0.0, 0.0, 0.0, 0.0, 0.0, 0.0, 1.740936391739469E9, 0.0, 2025-03-02 19:26:31.739
195.0, 5280.532572332928, 0.0, 0.0, 0.0, 0.0, 0.0, 0.0, 0.0, 0.076, 0.032, 0.982, 192.0, 0.0, 0.0, 0.0, 0.0, 0.0, 0.0, 0.0, 0.0, 0.0, 1.740936391739513E9, 0.0, 2025-03-02 19:26:31.739
196.0, 5283.460650856573, 0.0, 0.0, 0.0, 0.0, 0.0, 0.0, 0.0, 0.076, 0.032, 0.982, 192.0, 0.0, 0.0, 0.0, 0.0, 0.0, 0.0, 0.0, 0.0, 0.0, 1.740936391798664E9, 0.0, 2025-03-02 19:26:31.798
197.0, 5395.867573722312, 0.0, 0.0, 0.0, 0.0, 0.0, 0.0, 0.0, 0.076, 0.032, 0.982, 192.0, 0.0, 0.0, 0.0, 0.0, 0.0, 0.0, 0.0, 0.0, 0.0, 1.740936391798715E9, 0.0, 2025-03-02 19:26:31.798
198.0, 5402.126062169798, 0.0, 0.0, 0.0, 0.0, 0.0, 0.0, 0.0, 0.076, 0.032, 0.982, 192.0, 0.0, 0.0, 0.0, 0.0, 0.0, 0.0, 0.0, 0.0, 0.0, 1.74093639179874E9, 0.0, 2025-03-02 19:26:31.798
199.0, 5282.298360144897, 0.0, 0.0, 0.0, 0.0, 0.0, 0.0, 0.0, 0.076, 0.032, 0.982, 192.0, 0.0, 0.0, 0.0, 0.0, 0.0, 0.0, 0.0, 0.0, 0.0, 1.740936391798763E9, 0.0, 2025-03-02 19:26:31.798
200.0, 5315.133072749743, 0.0, 0.0, 0.0, 0.0, 0.0, 0.0, 0.0, 0.076, 0.032, 0.982, 192.0, 0.0, 0.0, 0.0, 0.0, 0.0, 0.0, 0.0, 0.0, 0.0, 1.740936391798786E9, 0.0, 2025-03-02 19:26:31.798
201.0, 5400.583791802382, 0.0, 0.0, 0.0, 0.0, 0.0, 0.0, 0.0, 0.076, 0.032, 0.982, 192.0, 0.0, 0.0, 0.0, 0.0, 0.0, 0.0, 0.0, 0.0, 0.0, 1.74093639179881E9, 0.0, 2025-03-02 19:26:31.798
202.0, 5367.7267274530805, 0.0, 0.0, 0.0, 0.0, 0.0, 0.0, 0.0, 0.07200000000000001, 0.032, 0.984, 192.0, 2.0, 64.0, 1.0, 0.0, 30.0, 192.0, 0.0, 0.0, 0.0, 1.740936391798833E9, 0.0, 2025-03-02 19:26:31.798
203.0, 5275.414022852662, 0.0, 0.0, 0.0, 0.0, 0.0, 0.0, 0.0, 0.07200000000000001, 0.032, 0.984, 192.0, 0.0, 0.0, 0.0, 0.0, 0.0, 0.0, 0.0, 0.0, 0.0, 1.740936391798912E9, 0.0, 2025-03-02 19:26:31.798
204.0, 5200.759196371937, 0.0, 0.0, 0.0, 0.0, 0.0, 0.0, 0.0, 0.07200000000000001, 0.032, 0.984, 192.0, 0.0, 0.0, 0.0, 0.0, 0.0, 0.0, 0.0, 0.0, 0.0, 1.740936391798936E9, 0.0, 2025-03-02 19:26:31.798
205.0, 5281.784270022425, 0.0, 0.0, 0.0, 0.0, 0.0, 0.0, 0.0, 0.07200000000000001, 0.032, 0.984, 192.0, 0.0, 0.0, 0.0, 0.0, 0.0, 0.0, 0.0, 0.0, 0.0, 1.740936391798959E9, 0.0, 2025-03-02 19:26:31.798
206.0, 5313.881375060246, 0.0, 0.0, 0.0, 0.0, 0.0, 0.0, 0.0, 0.07200000000000001, 0.032, 0.984, 192.0, 0.0, 0.0, 0.0, 0.0, 0.0, 0.0, 0.0, 0.0, 0.0, 1.740936391798983E9, 0.0, 2025-03-02 19:26:31.798
207.0, 5326.487758933039, 0.0, 0.0, 0.0, 0.0, 0.0, 0.0, 0.0, 0.07200000000000001, 0.032, 0.984, 192.0, 0.0, 0.0, 0.0, 0.0, 0.0, 0.0, 0.0, 0.0, 0.0, 1.740936391799019E9, 0.0, 2025-03-02 19:26:31.799
208.0, 5381.249532848541, 0.0, 0.0, 0.0, 0.0, 0.0, 0.0, 0.0, 0.07200000000000001, 0.032, 0.984, 192.0, 0.0, 0.0, 0.0, 0.0, 0.0, 0.0, 0.0, 0.0, 0.0, 1.740936391799061E9, 0.0, 2025-03-02 19:26:31.799
209.0, 5284.533534590428, 0.0, 0.0, 0.0, 0.0, 0.0, 0.0, 0.0, 0.07200000000000001, 0.032, 0.984, 192.0, 0.0, 0.0, 0.0, 0.0, 0.0, 0.0, 0.0, 0.0, 0.0, 1.740936391799085E9, 0.0, 2025-03-02 19:26:31.799
210.0, 5372.934683911167, 0.0, 0.0, 0.0, 0.0, 0.0, 0.0, 0.0, 0.07200000000000001, 0.032, 0.984, 192.0, 0.0, 0.0, 0.0, 0.0, 0.0, 0.0, 0.0, 0.0, 0.0, 1.740936391799108E9, 0.0, 2025-03-02 19:26:31.799
211.0, 5447.008365036055, 0.0, 0.0, 0.0, 0.0, 0.0, 0.0, 0.0, 0.07200000000000001, 0.032, 0.984, 192.0, 0.0, 0.0, 0.0, 0.0, 0.0, 0.0, 0.0, 0.0, 0.0, 1.740936391859007E9, 0.0, 2025-03-02 19:26:31.859
212.0, 5418.576946088904, 0.0, 0.0, 0.0, 0.0, 0.0, 0.0, 0.0, 0.074, 0.032, 0.988, 192.0, 2.0, 80.0, 1.0, 0.0, 30.0, 224.0, 0.0, 0.0, 0.0, 1.740936391859072E9, 0.0, 2025-03-02 19:26:31.859
213.0, 5407.065797694421, 0.0, 0.0, 0.0, 0.0, 0.0, 0.0, 0.0, 0.074, 0.032, 0.988, 192.0, 0.0, 0.0, 0.0, 0.0, 0.0, 0.0, 0.0, 0.0, 0.0, 1.740936391859118E9, 0.0, 2025-03-02 19:26:31.859
214.0, 5294.636523084227, 0.0, 0.0, 0.0, 0.0, 0.0, 0.0, 0.0, 0.074, 0.032, 0.988, 192.0, 0.0, 0.0, 0.0, 0.0, 0.0, 0.0, 0.0, 0.0, 0.0, 1.740936391859162E9, 0.0, 2025-03-02 19:26:31.859
215.0, 5352.684003434659, 0.0, 0.0, 0.0, 0.0, 0.0, 0.0, 0.0, 0.074, 0.032, 0.988, 192.0, 0.0, 0.0, 0.0, 0.0, 0.0, 0.0, 0.0, 0.0, 0.0, 1.740936391859205E9, 0.0, 2025-03-02 19:26:31.859
216.0, 5446.360164446851, 0.0, 0.0, 0.0, 0.0, 0.0, 0.0, 0.0, 0.074, 0.032, 0.988, 192.0, 0.0, 0.0, 0.0, 0.0, 0.0, 0.0, 0.0, 0.0, 0.0, 1.740936391859249E9, 0.0, 2025-03-02 19:26:31.859
217.0, 5386.59159977336, 0.0, 0.0, 0.0, 0.0, 0.0, 0.0, 0.0, 0.074, 0.032, 0.988, 192.0, 0.0, 0.0, 0.0, 0.0, 0.0, 0.0, 0.0, 0.0, 0.0, 1.740936391859292E9, 0.0, 2025-03-02 19:26:31.859
218.0, 5404.674161037703, 0.0, 0.0, 0.0, 0.0, 0.0, 0.0, 0.0, 0.074, 0.032, 0.988, 192.0, 0.0, 0.0, 0.0, 0.0, 0.0, 0.0, 0.0, 0.0, 0.0, 1.740936391859335E9, 0.0, 2025-03-02 19:26:31.859
219.0, 5387.35155908484, 0.0, 0.0, 0.0, 0.0, 0.0, 0.0, 0.0, 0.074, 0.032, 0.988, 192.0, 0.0, 0.0, 0.0, 0.0, 0.0, 0.0, 0.0, 0.0, 0.0, 1.740936391859378E9, 0.0, 2025-03-02 19:26:31.859
220.0, 5372.644111233248, 0.0, 0.0, 0.0, 0.0, 0.0, 0.0, 0.0, 0.074, 0.032, 0.988, 192.0, 0.0, 0.0, 0.0, 0.0, 0.0, 0.0, 0.0, 0.0, 0.0, 1.740936391859421E9, 0.0, 2025-03-02 19:26:31.859
221.0, 5458.564216919448, 0.0, 0.0, 0.0, 0.0, 0.0, 0.0, 0.0, 0.082, 0.032, 0.99, 192.0, 2.0, 144.0, 1.0, 0.0, 30.0, 240.0, 0.0, 0.0, 0.0, 1.740936391859524E9, 0.0, 2025-03-02 19:26:31.859
222.0, 5518.824519970956, 0.0, 0.0, 0.0, 0.0, 0.0, 0.0, 0.0, 0.082, 0.032, 0.99, 192.0, 0.0, 0.0, 0.0, 0.0, 0.0, 0.0, 0.0, 0.0, 0.0, 1.740936391859574E9, 0.0, 2025-03-02 19:26:31.859
223.0, 5630.136207358385, 0.0, 0.0, 0.0, 0.0, 0.0, 0.0, 0.0, 0.082, 0.032, 0.99, 192.0, 0.0, 0.0, 0.0, 0.0, 0.0, 0.0, 0.0, 0.0, 0.0, 1.740936391859627E9, 0.0, 2025-03-02 19:26:31.859
224.0, 5889.707015717866, 0.0, 0.0, 0.0, 0.0, 0.0, 0.0, 0.0, 0.082, 0.032, 0.99, 192.0, 0.0, 0.0, 0.0, 0.0, 0.0, 0.0, 0.0, 0.0, 0.0, 1.740936391859671E9, 0.0, 2025-03-02 19:26:31.859
225.0, 6196.4623566225, 0.0, 0.0, 0.0, 0.0, 0.0, 0.0, 0.0, 0.082, 0.032, 0.99, 192.0, 0.0, 0.0, 0.0, 0.0, 0.0, 0.0, 0.0, 0.0, 0.0, 1.740936391859715E9, 0.0, 2025-03-02 19:26:31.859
226.0, 6597.9890940176365, 0.0, 0.0, 0.0, 0.0, 0.0, 0.0, 0.0, 0.082, 0.032, 0.99, 192.0, 0.0, 0.0, 0.0, 0.0, 0.0, 0.0, 0.0, 0.0, 0.0, 1.740936391919221E9, 0.0, 2025-03-02 19:26:31.919
227.0, 6862.678451857383, 0.0, 0.0, 0.0, 0.0, 0.0, 0.0, 0.0, 0.082, 0.032, 0.99, 192.0, 0.0, 0.0, 0.0, 0.0, 0.0, 0.0, 0.0, 0.0, 0.0, 1.740936391919287E9, 0.0, 2025-03-02 19:26:31.919
228.0, 6783.642683463417, 0.0, 0.0, 0.0, 0.0, 0.0, 0.0, 0.0, 0.082, 0.032, 0.99, 192.0, 0.0, 0.0, 0.0, 0.0, 0.0, 0.0, 0.0, 0.0, 0.0, 1.740936391919332E9, 0.0, 2025-03-02 19:26:31.919
229.0, 6615.535213415053, 0.0, 0.0, 0.0, 0.0, 0.0, 0.0, 0.0, 0.082, 0.032, 0.99, 192.0, 0.0, 0.0, 0.0, 0.0, 0.0, 0.0, 0.0, 0.0, 0.0, 1.740936391919386E9, 0.0, 2025-03-02 19:26:31.919
230.0, 6422.058513409915, 0.0, 0.0, 0.0, 0.0, 0.0, 0.0, 0.0, 0.082, 0.032, 0.99, 192.0, 0.0, 0.0, 0.0, 0.0, 0.0, 0.0, 0.0, 0.0, 0.0, 1.740936391919534E9, 0.0, 2025-03-02 19:26:31.919
231.0, 6005.846679907641, 0.0, 0.0, 0.0, 0.0, 0.0, 0.0, 0.0, 0.08, 0.028, 0.99, 192.0, 2.0, 128.0, 0.0, 224.0, 30.0, 240.0, 0.0, 0.0, 0.0, 1.740936391919585E9, 0.0, 2025-03-02 19:26:31.919
232.0, 5578.458974177715, 0.0, 0.0, 0.0, 0.0, 0.0, 0.0, 0.0, 0.08, 0.028, 0.99, 192.0, 0.0, 0.0, 0.0, 0.0, 0.0, 0.0, 0.0, 0.0, 0.0, 1.740936391919631E9, 0.0, 2025-03-02 19:26:31.919
233.0, 5325.079599032355, 0.0, 0.0, 0.0, 0.0, 0.0, 0.0, 0.0, 0.08, 0.028, 0.99, 192.0, 0.0, 0.0, 0.0, 0.0, 0.0, 0.0, 0.0, 0.0, 0.0, 1.740936391919674E9, 0.0, 2025-03-02 19:26:31.919
234.0, 5176.21698096001, 0.0, 0.0, 0.0, 0.0, 0.0, 0.0, 0.0, 0.08, 0.028, 0.99, 192.0, 0.0, 0.0, 0.0, 0.0, 0.0, 0.0, 0.0, 0.0, 0.0, 1.740936391919718E9, 0.0, 2025-03-02 19:26:31.919
235.0, 5286.388729380218, 0.0, 0.0, 0.0, 0.0, 0.0, 0.0, 0.0, 0.08, 0.028, 0.99, 192.0, 0.0, 0.0, 0.0, 0.0, 0.0, 0.0, 0.0, 0.0, 0.0, 1.740936391919761E9, 0.0, 2025-03-02 19:26:31.919
236.0, 5464.912112344756, 0.0, 0.0, 0.0, 0.0, 0.0, 0.0, 0.0, 0.08, 0.028, 0.99, 192.0, 0.0, 0.0, 0.0, 0.0, 0.0, 0.0, 0.0, 0.0, 0.0, 1.740936391919804E9, 0.0, 2025-03-02 19:26:31.919
237.0, 5486.034510855021, 0.0, 0.0, 0.0, 0.0, 0.0, 0.0, 0.0, 0.08, 0.028, 0.99, 192.0, 0.0, 0.0, 0.0, 0.0, 0.0, 0.0, 0.0, 0.0, 0.0, 1.740936391919847E9, 0.0, 2025-03-02 19:26:31.919
238.0, 5418.398132133261, 0.0, 0.0, 0.0, 0.0, 0.0, 0.0, 0.0, 0.08, 0.028, 0.99, 192.0, 0.0, 0.0, 0.0, 0.0, 0.0, 0.0, 0.0, 0.0, 0.0, 1.74093639191989E9, 0.0, 2025-03-02 19:26:31.919
239.0, 5389.609085274826, 0.0, 0.0, 0.0, 0.0, 0.0, 0.0, 0.0, 0.08, 0.028, 0.99, 192.0, 0.0, 0.0, 0.0, 0.0, 0.0, 0.0, 0.0, 0.0, 0.0, 1.740936391919978E9, 0.0, 2025-03-02 19:26:31.919
240.0, 5507.201612854196, 0.0, 0.0, 0.0, 0.0, 0.0, 0.0, 0.0, 0.08, 0.028, 0.99, 192.0, 0.0, 0.0, 0.0, 0.0, 0.0, 0.0, 0.0, 0.0, 0.0, 1.740936391920022E9, 0.0, 2025-03-02 19:26:31.920
241.0, 5564.198561215229, 0.0, 0.0, 0.0, 0.0, 0.0, 0.0, 0.0, 0.078, 0.03, 0.994, 192.0, 2.0, 112.0, 0.0, 240.0, 31.0, 16.0, 0.0, 0.0, 0.0, 1.740936391979508E9, 0.0, 2025-03-02 19:26:31.979
242.0, 5579.53185791157, 0.0, 0.0, 0.0, 0.0, 0.0, 0.0, 0.0, 0.078, 0.03, 0.994, 192.0, 0.0, 0.0, 0.0, 0.0, 0.0, 0.0, 0.0, 0.0, 0.0, 1.740936391979606E9, 0.0, 2025-03-02 19:26:31.979
243.0, 5533.24139514463, 0.0, 0.0, 0.0, 0.0, 0.0, 0.0, 0.0, 0.078, 0.03, 0.994, 192.0, 0.0, 0.0, 0.0, 0.0, 0.0, 0.0, 0.0, 0.0, 0.0, 1.740936391979652E9, 0.0, 2025-03-02 19:26:31.979
244.0, 5507.1345576208305, 0.0, 0.0, 0.0, 0.0, 0.0, 0.0, 0.0, 0.078, 0.03, 0.994, 192.0, 0.0, 0.0, 0.0, 0.0, 0.0, 0.0, 0.0, 0.0, 0.0, 1.740936391979696E9, 0.0, 2025-03-02 19:26:31.979
245.0, 5573.541590397548, 0.0, 0.0, 0.0, 0.0, 0.0, 0.0, 0.0, 0.078, 0.03, 0.994, 192.0, 0.0, 0.0, 0.0, 0.0, 0.0, 0.0, 0.0, 0.0, 0.0, 1.740936391979744E9, 0.0, 2025-03-02 19:26:31.979
246.0, 5526.535871808037, 0.0, 0.0, 0.0, 0.0, 0.0, 0.0, 0.0, 0.078, 0.03, 0.994, 192.0, 0.0, 0.0, 0.0, 0.0, 0.0, 0.0, 0.0, 0.0, 0.0, 1.740936391979769E9, 0.0, 2025-03-02 19:26:31.979
247.0, 5469.002481580077, 0.0, 0.0, 0.0, 0.0, 0.0, 0.0, 0.0, 0.078, 0.03, 0.994, 192.0, 0.0, 0.0, 0.0, 0.0, 0.0, 0.0, 0.0, 0.0, 0.0, 1.740936391979792E9, 0.0, 2025-03-02 19:26:31.979
248.0, 5507.156909365286, 0.0, 0.0, 0.0, 0.0, 0.0, 0.0, 0.0, 0.078, 0.03, 0.994, 192.0, 0.0, 0.0, 0.0, 0.0, 0.0, 0.0, 0.0, 0.0, 0.0, 1.740936391979815E9, 0.0, 2025-03-02 19:26:31.979
249.0, 5522.2219851281625, 0.0, 0.0, 0.0, 0.0, 0.0, 0.0, 0.0, 0.078, 0.03, 0.994, 192.0, 0.0, 0.0, 0.0, 0.0, 0.0, 0.0, 0.0, 0.0, 0.0, 1.740936391979838E9, 0.0, 2025-03-02 19:26:31.979
250.0, 5540.796284770523, 0.0, 0.0, 0.0, 0.0, 0.0, 0.0, 0.0, 0.078, 0.03, 0.994, 192.0, 0.0, 0.0, 0.0, 0.0, 0.0, 0.0, 0.0, 0.0, 0.0, 1.740936391979861E9, 0.0, 2025-03-02 19:26:31.979
251.0, 5519.2268513711515, 0.0, 0.0, 0.0, 0.0, 0.0, 0.0, 0.0, 0.074, 0.026000000000000002, 0.992, 192.0, 2.0, 80.0, 0.0, 208.0, 31.0, 0.0, 0.0, 0.0, 0.0, 1.740936391979884E9, 0.0, 2025-03-02 19:26:31.979
252.0, 5596.429776719782, 0.0, 0.0, 0.0, 0.0, 0.0, 0.0, 0.0, 0.074, 0.026000000000000002, 0.992, 192.0, 0.0, 0.0, 0.0, 0.0, 0.0, 0.0, 0.0, 0.0, 0.0, 1.740936391979909E9, 0.0, 2025-03-02 19:26:31.979
253.0, 5560.0187850020875, 0.0, 0.0, 0.0, 0.0, 0.0, 0.0, 0.0, 0.074, 0.026000000000000002, 0.992, 192.0, 0.0, 0.0, 0.0, 0.0, 0.0, 0.0, 0.0, 0.0, 0.0, 1.740936391979932E9, 0.0, 2025-03-02 19:26:31.979
254.0, 5464.353318733373, 0.0, 0.0, 0.0, 0.0, 0.0, 0.0, 0.0, 0.074, 0.026000000000000002, 0.992, 192.0, 0.0, 0.0, 0.0, 0.0, 0.0, 0.0, 0.0, 0.0, 0.0, 1.740936391979955E9, 0.0, 2025-03-02 19:26:31.979
255.0, 5498.909115661278, 0.0, 0.0, 0.0, 0.0, 0.0, 0.0, 0.0, 0.074, 0.026000000000000002, 0.992, 192.0, 0.0, 0.0, 0.0, 0.0, 0.0, 0.0, 0.0, 0.0, 0.0, 1.740936391979978E9, 0.0, 2025-03-02 19:26:31.979
0.0, 5520.746769994113, 0.0, 0.0, 0.0, 0.0, 0.0, 0.0, 0.0, 0.074, 0.026000000000000002, 0.992, 192.0, 0.0, 0.0, 0.0, 0.0, 0.0, 0.0, 0.0, 0.0, 0.0, 1.740936392038886E9, 0.0, 2025-03-02 19:26:32.038
1.0, 5576.268503221096, 0.0, 0.0, 0.0, 0.0, 0.0, 0.0, 0.0, 0.074, 0.026000000000000002, 0.992, 192.0, 0.0, 0.0, 0.0, 0.0, 0.0, 0.0, 0.0, 0.0, 0.0, 1.740936392038931E9, 0.0, 2025-03-02 19:26:32.038
2.0, 5604.208183790229, 0.0, 0.0, 0.0, 0.0, 0.0, 0.0, 0.0, 0.074, 0.026000000000000002, 0.992, 192.0, 0.0, 0.0, 0.0, 0.0, 0.0, 0.0, 0.0, 0.0, 0.0, 1.740936392038956E9, 0.0, 2025-03-02 19:26:32.038
3.0, 5469.315406002451, 0.0, 0.0, 0.0, 0.0, 0.0, 0.0, 0.0, 0.074, 0.026000000000000002, 0.992, 192.0, 0.0, 0.0, 0.0, 0.0, 0.0, 0.0, 0.0, 0.0, 0.0, 1.74093639203898E9, 0.0, 2025-03-02 19:26:32.038
4.0, 5560.1975989577295, 0.0, 0.0, 0.0, 0.0, 0.0, 0.0, 0.0, 0.074, 0.026000000000000002, 0.992, 192.0, 0.0, 0.0, 0.0, 0.0, 0.0, 0.0, 0.0, 0.0, 0.0, 1.740936392039003E9, 0.0, 2025-03-02 19:26:32.039
5.0, 5614.266468795117, 0.0, 0.0, 0.0, 0.0, 0.0, 0.0, 0.0, 0.076, 0.024, 0.984, 192.0, 2.0, 96.0, 0.0, 192.0, 30.0, 192.0, 0.0, 0.0, 0.0, 1.740936392039025E9, 0.0, 2025-03-02 19:26:32.039
6.0, 5605.549288457548, 0.0, 0.0, 0.0, 0.0, 0.0, 0.0, 0.0, 0.076, 0.024, 0.984, 192.0, 0.0, 0.0, 0.0, 0.0, 0.0, 0.0, 0.0, 0.0, 0.0, 1.740936392039049E9, 0.0, 2025-03-02 19:26:32.039
7.0, 5585.455070192226, 0.0, 0.0, 0.0, 0.0, 0.0, 0.0, 0.0, 0.076, 0.024, 0.984, 192.0, 0.0, 0.0, 0.0, 0.0, 0.0, 0.0, 0.0, 0.0, 0.0, 1.740936392039072E9, 0.0, 2025-03-02 19:26:32.039
8.0, 5520.9255839497555, 0.0, 0.0, 0.0, 0.0, 0.0, 0.0, 0.0, 0.076, 0.024, 0.984, 192.0, 0.0, 0.0, 0.0, 0.0, 0.0, 0.0, 0.0, 0.0, 0.0, 1.740936392039094E9, 0.0, 2025-03-02 19:26:32.039
9.0, 5593.993436574154, 0.0, 0.0, 0.0, 0.0, 0.0, 0.0, 0.0, 0.076, 0.024, 0.984, 192.0, 0.0, 0.0, 0.0, 0.0, 0.0, 0.0, 0.0, 0.0, 0.0, 1.740936392039117E9, 0.0, 2025-03-02 19:26:32.039
10.0, 5515.024723413554, 0.0, 0.0, 0.0, 0.0, 0.0, 0.0, 0.0, 0.076, 0.024, 0.984, 192.0, 0.0, 0.0, 0.0, 0.0, 0.0, 0.0, 0.0, 0.0, 0.0, 1.740936392039139E9, 0.0, 2025-03-02 19:26:32.039
11.0, 5575.195619487241, 0.0, 0.0, 0.0, 0.0, 0.0, 0.0, 0.0, 0.076, 0.024, 0.984, 192.0, 0.0, 0.0, 0.0, 0.0, 0.0, 0.0, 0.0, 0.0, 0.0, 1.740936392039162E9, 0.0, 2025-03-02 19:26:32.039
12.0, 5551.256901175607, 0.0, 0.0, 0.0, 0.0, 0.0, 0.0, 0.0, 0.076, 0.024, 0.984, 192.0, 0.0, 0.0, 0.0, 0.0, 0.0, 0.0, 0.0, 0.0, 0.0, 1.740936392039185E9, 0.0, 2025-03-02 19:26:32.039
13.0, 5464.733298389113, 0.0, 0.0, 0.0, 0.0, 0.0, 0.0, 0.0, 0.076, 0.024, 0.984, 192.0, 0.0, 0.0, 0.0, 0.0, 0.0, 0.0, 0.0, 0.0, 0.0, 1.740936392039214E9, 0.0, 2025-03-02 19:26:32.039
14.0, 5519.562127537982, 0.0, 0.0, 0.0, 0.0, 0.0, 0.0, 0.0, 0.07200000000000001, 0.022, 0.982, 192.0, 2.0, 64.0, 0.0, 176.0, 30.0, 176.0, 0.0, 0.0, 0.0, 1.740936392039237E9, 0.0, 2025-03-02 19:26:32.039
15.0, 5606.242192535662, 0.0, 0.0, 0.0, 0.0, 0.0, 0.0, 0.0, 0.07200000000000001, 0.022, 0.982, 192.0, 0.0, 0.0, 0.0, 0.0, 0.0, 0.0, 0.0, 0.0, 0.0, 1.740936392098629E9, 0.0, 2025-03-02 19:26:32.098
16.0, 5658.835847239, 0.0, 0.0, 0.0, 0.0, 0.0, 0.0, 0.0, 0.07200000000000001, 0.022, 0.982, 192.0, 0.0, 0.0, 0.0, 0.0, 0.0, 0.0, 0.0, 0.0, 0.0, 1.740936392098692E9, 0.0, 2025-03-02 19:26:32.098
17.0, 5618.535651986081, 0.0, 0.0, 0.0, 0.0, 0.0, 0.0, 0.0, 0.07200000000000001, 0.022, 0.982, 192.0, 0.0, 0.0, 0.0, 0.0, 0.0, 0.0, 0.0, 0.0, 0.0, 1.740936392098737E9, 0.0, 2025-03-02 19:26:32.098
18.0, 5567.216046716696, 0.0, 0.0, 0.0, 0.0, 0.0, 0.0, 0.0, 0.07200000000000001, 0.022, 0.982, 192.0, 0.0, 0.0, 0.0, 0.0, 0.0, 0.0, 0.0, 0.0, 0.0, 1.74093639209883E9, 0.0, 2025-03-02 19:26:32.098
19.0, 5616.523994985103, 0.0, 0.0, 0.0, 0.0, 0.0, 0.0, 0.0, 0.07200000000000001, 0.022, 0.982, 192.0, 0.0, 0.0, 0.0, 0.0, 0.0, 0.0, 0.0, 0.0, 0.0, 1.740936392098874E9, 0.0, 2025-03-02 19:26:32.098
20.0, 5698.644304113902, 0.0, 0.0, 0.0, 0.0, 0.0, 0.0, 0.0, 0.07200000000000001, 0.022, 0.982, 192.0, 0.0, 0.0, 0.0, 0.0, 0.0, 0.0, 0.0, 0.0, 0.0, 1.740936392098919E9, 0.0, 2025-03-02 19:26:32.098
21.0, 5682.998082995186, 0.0, 0.0, 0.0, 0.0, 0.0, 0.0, 0.0, 0.07200000000000001, 0.022, 0.982, 192.0, 0.0, 0.0, 0.0, 0.0, 0.0, 0.0, 0.0, 0.0, 0.0, 1.740936392098952E9, 0.0, 2025-03-02 19:26:32.098
22.0, 5636.9758411617095, 0.0, 0.0, 0.0, 0.0, 0.0, 0.0, 0.0, 0.07200000000000001, 0.022, 0.982, 192.0, 0.0, 0.0, 0.0, 0.0, 0.0, 0.0, 0.0, 0.0, 0.0, 1.740936392098975E9, 0.0, 2025-03-02 19:26:32.098
23.0, 5578.05664277752, 0.0, 0.0, 0.0, 0.0, 0.0, 0.0, 0.0, 0.07200000000000001, 0.022, 0.982, 192.0, 0.0, 0.0, 0.0, 0.0, 0.0, 0.0, 0.0, 0.0, 0.0, 1.740936392098998E9, 0.0, 2025-03-02 19:26:32.098
24.0, 5610.198451304252, 0.0, 0.0, 0.0, 0.0, 0.0, 0.0, 0.0, 0.074, 0.02, 0.986, 192.0, 2.0, 80.0, 0.0, 160.0, 30.0, 208.0, 0.0, 0.0, 0.0, 1.740936392099021E9, 0.0, 2025-03-02 19:26:32.099
25.0, 5694.352769178483, 0.0, 0.0, 0.0, 0.0, 0.0, 0.0, 0.0, 0.074, 0.02, 0.986, 192.0, 0.0, 0.0, 0.0, 0.0, 0.0, 0.0, 0.0, 0.0, 0.0, 1.740936392099045E9, 0.0, 2025-03-02 19:26:32.099
26.0, 5699.650132614391, 0.0, 0.0, 0.0, 0.0, 0.0, 0.0, 0.0, 0.074, 0.02, 0.986, 192.0, 0.0, 0.0, 0.0, 0.0, 0.0, 0.0, 0.0, 0.0, 0.0, 1.740936392099067E9, 0.0, 2025-03-02 19:26:32.099
27.0, 5608.700884425746, 0.0, 0.0, 0.0, 0.0, 0.0, 0.0, 0.0, 0.074, 0.02, 0.986, 192.0, 0.0, 0.0, 0.0, 0.0, 0.0, 0.0, 0.0, 0.0, 0.0, 1.740936392099096E9, 0.0, 2025-03-02 19:26:32.099
28.0, 5562.3657181698945, 0.0, 0.0, 0.0, 0.0, 0.0, 0.0, 0.0, 0.074, 0.02, 0.986, 192.0, 0.0, 0.0, 0.0, 0.0, 0.0, 0.0, 0.0, 0.0, 0.0, 1.740936392099119E9, 0.0, 2025-03-02 19:26:32.099
29.0, 5596.9438668422545, 0.0, 0.0, 0.0, 0.0, 0.0, 0.0, 0.0, 0.074, 0.02, 0.986, 192.0, 0.0, 0.0, 0.0, 0.0, 0.0, 0.0, 0.0, 0.0, 0.0, 1.740936392099142E9, 0.0, 2025-03-02 19:26:32.099
30.0, 5643.122570886919, 0.0, 0.0, 0.0, 0.0, 0.0, 0.0, 0.0, 0.074, 0.02, 0.986, 192.0, 0.0, 0.0, 0.0, 0.0, 0.0, 0.0, 0.0, 0.0, 0.0, 1.740936392158957E9, 0.0, 2025-03-02 19:26:32.158
31.0, 5682.193420194795, 0.0, 0.0, 0.0, 0.0, 0.0, 0.0, 0.0, 0.074, 0.02, 0.986, 192.0, 0.0, 0.0, 0.0, 0.0, 0.0, 0.0, 0.0, 0.0, 0.0, 1.740936392159006E9, 0.0, 2025-03-02 19:26:32.159
32.0, 5627.54340500157, 0.0, 0.0, 0.0, 0.0, 0.0, 0.0, 0.0, 0.074, 0.02, 0.986, 192.0, 0.0, 0.0, 0.0, 0.0, 0.0, 0.0, 0.0, 0.0, 0.0, 1.740936392159032E9, 0.0, 2025-03-02 19:26:32.159
33.0, 5482.502935231082, 0.0, 0.0, 0.0, 0.0, 0.0, 0.0, 0.0, 0.074, 0.02, 0.986, 192.0, 0.0, 0.0, 0.0, 0.0, 0.0, 0.0, 0.0, 0.0, 0.0, 1.740936392159055E9, 0.0, 2025-03-02 19:26:32.159
34.0, 5495.824574926445, 0.0, 0.0, 0.0, 0.0, 0.0, 0.0, 0.0, 0.07200000000000001, 0.022, 0.984, 192.0, 2.0, 64.0, 0.0, 176.0, 30.0, 192.0, 0.0, 0.0, 0.0, 1.740936392159078E9, 0.0, 2025-03-02 19:26:32.159
35.0, 5513.348342579406, 0.0, 0.0, 0.0, 0.0, 0.0, 0.0, 0.0, 0.07200000000000001, 0.022, 0.984, 192.0, 0.0, 0.0, 0.0, 0.0, 0.0, 0.0, 0.0, 0.0, 0.0, 1.740936392159103E9, 0.0, 2025-03-02 19:26:32.159
36.0, 5573.921570053288, 0.0, 0.0, 0.0, 0.0, 0.0, 0.0, 0.0, 0.07200000000000001, 0.022, 0.984, 192.0, 0.0, 0.0, 0.0, 0.0, 0.0, 0.0, 0.0, 0.0, 0.0, 1.74093639215918E9, 0.0, 2025-03-02 19:26:32.159
37.0, 5552.598005842925, 0.0, 0.0, 0.0, 0.0, 0.0, 0.0, 0.0, 0.07200000000000001, 0.022, 0.984, 192.0, 0.0, 0.0, 0.0, 0.0, 0.0, 0.0, 0.0, 0.0, 0.0, 1.740936392159204E9, 0.0, 2025-03-02 19:26:32.159
38.0, 5451.41165869375, 0.0, 0.0, 0.0, 0.0, 0.0, 0.0, 0.0, 0.07200000000000001, 0.022, 0.984, 192.0, 0.0, 0.0, 0.0, 0.0, 0.0, 0.0, 0.0, 0.0, 0.0, 1.740936392159226E9, 0.0, 2025-03-02 19:26:32.159
39.0, 5433.284393940496, 0.0, 0.0, 0.0, 0.0, 0.0, 0.0, 0.0, 0.07200000000000001, 0.022, 0.984, 192.0, 0.0, 0.0, 0.0, 0.0, 0.0, 0.0, 0.0, 0.0, 0.0, 1.740936392159249E9, 0.0, 2025-03-02 19:26:32.159
40.0, 5493.097662102898, 0.0, 0.0, 0.0, 0.0, 0.0, 0.0, 0.0, 0.07200000000000001, 0.022, 0.984, 192.0, 0.0, 0.0, 0.0, 0.0, 0.0, 0.0, 0.0, 0.0, 0.0, 1.740936392159272E9, 0.0, 2025-03-02 19:26:32.159
41.0, 5548.798209285523, 0.0, 0.0, 0.0, 0.0, 0.0, 0.0, 0.0, 0.07200000000000001, 0.022, 0.984, 192.0, 0.0, 0.0, 0.0, 0.0, 0.0, 0.0, 0.0, 0.0, 0.0, 1.740936392159295E9, 0.0, 2025-03-02 19:26:32.159
42.0, 5472.243484526096, 0.0, 0.0, 0.0, 0.0, 0.0, 0.0, 0.0, 0.07200000000000001, 0.022, 0.984, 192.0, 0.0, 0.0, 0.0, 0.0, 0.0, 0.0, 0.0, 0.0, 0.0, 1.740936392159318E9, 0.0, 2025-03-02 19:26:32.159
43.0, 5357.3331662813625, 0.0, 0.0, 0.0, 0.0, 0.0, 0.0, 0.0, 0.07200000000000001, 0.022, 0.984, 192.0, 0.0, 0.0, 0.0, 0.0, 0.0, 0.0, 0.0, 0.0, 0.0, 1.740936392159366E9, 0.0, 2025-03-02 19:26:32.159
44.0, 5297.9892847525225, 0.0, 0.0, 0.0, 0.0, 0.0, 0.0, 0.0, 0.068, 0.022, 0.98, 192.0, 2.0, 32.0, 0.0, 176.0, 30.0, 160.0, 0.0, 0.0, 0.0, 1.740936392159411E9, 0.0, 2025-03-02 19:26:32.159
45.0, 5360.864741905301, 0.0, 0.0, 0.0, 0.0, 0.0, 0.0, 0.0, 0.068, 0.022, 0.98, 192.0, 0.0, 0.0, 0.0, 0.0, 0.0, 0.0, 0.0, 0.0, 0.0, 1.740936392219267E9, 0.0, 2025-03-02 19:26:32.219
46.0, 5409.055102950943, 0.0, 0.0, 0.0, 0.0, 0.0, 0.0, 0.0, 0.068, 0.022, 0.98, 192.0, 0.0, 0.0, 0.0, 0.0, 0.0, 0.0, 0.0, 0.0, 0.0, 1.740936392219314E9, 0.0, 2025-03-02 19:26:32.219
47.0, 5363.9716343845885, 0.0, 0.0, 0.0, 0.0, 0.0, 0.0, 0.0, 0.068, 0.022, 0.98, 192.0, 0.0, 0.0, 0.0, 0.0, 0.0, 0.0, 0.0, 0.0, 0.0, 1.740936392219339E9, 0.0, 2025-03-02 19:26:32.219
48.0, 5278.453860098584, 0.0, 0.0, 0.0, 0.0, 0.0, 0.0, 0.0, 0.068, 0.022, 0.98, 192.0, 0.0, 0.0, 0.0, 0.0, 0.0, 0.0, 0.0, 0.0, 0.0, 1.740936392219363E9, 0.0, 2025-03-02 19:26:32.219
49.0, 5292.423700383151, 0.0, 0.0, 0.0, 0.0, 0.0, 0.0, 0.0, 0.068, 0.022, 0.98, 192.0, 0.0, 0.0, 0.0, 0.0, 0.0, 0.0, 0.0, 0.0, 0.0, 1.740936392219387E9, 0.0, 2025-03-02 19:26:32.219
50.0, 5335.6743259041705, 0.0, 0.0, 0.0, 0.0, 0.0, 0.0, 0.0, 0.068, 0.022, 0.98, 192.0, 0.0, 0.0, 0.0, 0.0, 0.0, 0.0, 0.0, 0.0, 0.0, 1.74093639221941E9, 0.0, 2025-03-02 19:26:32.219
51.0, 5365.82682917438, 0.0, 0.0, 0.0, 0.0, 0.0, 0.0, 0.0, 0.068, 0.022, 0.98, 192.0, 0.0, 0.0, 0.0, 0.0, 0.0, 0.0, 0.0, 0.0, 0.0, 1.740936392219433E9, 0.0, 2025-03-02 19:26:32.219
52.0, 5376.890942679756, 0.0, 0.0, 0.0, 0.0, 0.0, 0.0, 0.0, 0.068, 0.022, 0.98, 192.0, 0.0, 0.0, 0.0, 0.0, 0.0, 0.0, 0.0, 0.0, 0.0, 1.740936392219456E9, 0.0, 2025-03-02 19:26:32.219
53.0, 5295.6423515847155, 0.0, 0.0, 0.0, 0.0, 0.0, 0.0, 0.0, 0.07, 0.022, 0.98, 192.0, 2.0, 48.0, 0.0, 176.0, 30.0, 160.0, 0.0, 0.0, 0.0, 1.740936392219567E9, 0.0, 2025-03-02 19:26:32.219
54.0, 5176.708719338027, 0.0, 0.0, 0.0, 0.0, 0.0, 0.0, 0.0, 0.07, 0.022, 0.98, 192.0, 0.0, 0.0, 0.0, 0.0, 0.0, 0.0, 0.0, 0.0, 0.0, 1.740936392219614E9, 0.0, 2025-03-02 19:26:32.219
55.0, 5291.909610260679, 0.0, 0.0, 0.0, 0.0, 0.0, 0.0, 0.0, 0.07, 0.022, 0.98, 192.0, 0.0, 0.0, 0.0, 0.0, 0.0, 0.0, 0.0, 0.0, 0.0, 1.740936392219672E9, 0.0, 2025-03-02 19:26:32.219
56.0, 5324.431398443151, 0.0, 0.0, 0.0, 0.0, 0.0, 0.0, 0.0, 0.07, 0.022, 0.98, 192.0, 0.0, 0.0, 0.0, 0.0, 0.0, 0.0, 0.0, 0.0, 0.0, 1.740936392219715E9, 0.0, 2025-03-02 19:26:32.219
57.0, 5328.789988611936, 0.0, 0.0, 0.0, 0.0, 0.0, 0.0, 0.0, 0.07, 0.022, 0.98, 192.0, 0.0, 0.0, 0.0, 0.0, 0.0, 0.0, 0.0, 0.0, 0.0, 1.740936392219762E9, 0.0, 2025-03-02 19:26:32.219
58.0, 5195.953571314046, 0.0, 0.0, 0.0, 0.0, 0.0, 0.0, 0.0, 0.07, 0.022, 0.98, 192.0, 0.0, 0.0, 0.0, 0.0, 0.0, 0.0, 0.0, 0.0, 0.0, 1.740936392219786E9, 0.0, 2025-03-02 19:26:32.219
59.0, 5191.125594511699, 0.0, 0.0, 0.0, 0.0, 0.0, 0.0, 0.0, 0.07, 0.022, 0.98, 192.0, 0.0, 0.0, 0.0, 0.0, 0.0, 0.0, 0.0, 0.0, 0.0, 1.740936392219809E9, 0.0, 2025-03-02 19:26:32.219
60.0, 5369.358404798318, 0.0, 0.0, 0.0, 0.0, 0.0, 0.0, 0.0, 0.07, 0.022, 0.98, 192.0, 0.0, 0.0, 0.0, 0.0, 0.0, 0.0, 0.0, 0.0, 0.0, 1.74093639227954E9, 0.0, 2025-03-02 19:26:32.279
61.0, 5387.284503851474, 0.0, 0.0, 0.0, 0.0, 0.0, 0.0, 0.0, 0.07, 0.022, 0.98, 192.0, 0.0, 0.0, 0.0, 0.0, 0.0, 0.0, 0.0, 0.0, 0.0, 1.74093639227959E9, 0.0, 2025-03-02 19:26:32.279
62.0, 5400.606143546837, 0.0, 0.0, 0.0, 0.0, 0.0, 0.0, 0.0, 0.07, 0.022, 0.98, 192.0, 0.0, 0.0, 0.0, 0.0, 0.0, 0.0, 0.0, 0.0, 0.0, 1.740936392279616E9, 0.0, 2025-03-02 19:26:32.279
63.0, 5295.776462051447, 0.0, 0.0, 0.0, 0.0, 0.0, 0.0, 0.0, 0.07200000000000001, 0.03, 0.984, 192.0, 2.0, 64.0, 0.0, 240.0, 30.0, 192.0, 0.0, 0.0, 0.0, 1.74093639227964E9, 0.0, 2025-03-02 19:26:32.279
64.0, 5210.035170320889, 0.0, 0.0, 0.0, 0.0, 0.0, 0.0, 0.0, 0.07200000000000001, 0.03, 0.984, 192.0, 0.0, 0.0, 0.0, 0.0, 0.0, 0.0, 0.0, 0.0, 0.0, 1.740936392279664E9, 0.0, 2025-03-02 19:26:32.279
65.0, 5364.977462885077, 0.0, 0.0, 0.0, 0.0, 0.0, 0.0, 0.0, 0.07200000000000001, 0.03, 0.984, 192.0, 0.0, 0.0, 0.0, 0.0, 0.0, 0.0, 0.0, 0.0, 0.0, 1.740936392279687E9, 0.0, 2025-03-02 19:26:32.279
66.0, 5431.1162747283315, 0.0, 0.0, 0.0, 0.0, 0.0, 0.0, 0.0, 0.07200000000000001, 0.03, 0.984, 192.0, 0.0, 0.0, 0.0, 0.0, 0.0, 0.0, 0.0, 0.0, 0.0, 1.74093639227971E9, 0.0, 2025-03-02 19:26:32.279
67.0, 5383.507059038528, 0.0, 0.0, 0.0, 0.0, 0.0, 0.0, 0.0, 0.07200000000000001, 0.03, 0.984, 192.0, 0.0, 0.0, 0.0, 0.0, 0.0, 0.0, 0.0, 0.0, 0.0, 1.740936392279732E9, 0.0, 2025-03-02 19:26:32.279
68.0, 5290.724967804547, 0.0, 0.0, 0.0, 0.0, 0.0, 0.0, 0.0, 0.07200000000000001, 0.03, 0.984, 192.0, 0.0, 0.0, 0.0, 0.0, 0.0, 0.0, 0.0, 0.0, 0.0, 1.740936392279755E9, 0.0, 2025-03-02 19:26:32.279
69.0, 5321.81624434188, 0.0, 0.0, 0.0, 0.0, 0.0, 0.0, 0.0, 0.07200000000000001, 0.03, 0.984, 192.0, 0.0, 0.0, 0.0, 0.0, 0.0, 0.0, 0.0, 0.0, 0.0, 1.740936392279778E9, 0.0, 2025-03-02 19:26:32.279
70.0, 5389.0279399189885, 0.0, 0.0, 0.0, 0.0, 0.0, 0.0, 0.0, 0.07200000000000001, 0.03, 0.984, 192.0, 0.0, 0.0, 0.0, 0.0, 0.0, 0.0, 0.0, 0.0, 0.0, 1.740936392279801E9, 0.0, 2025-03-02 19:26:32.279
71.0, 5456.731373874113, 0.0, 0.0, 0.0, 0.0, 0.0, 0.0, 0.0, 0.07200000000000001, 0.03, 0.984, 192.0, 0.0, 0.0, 0.0, 0.0, 0.0, 0.0, 0.0, 0.0, 0.0, 1.740936392279869E9, 0.0, 2025-03-02 19:26:32.279
72.0, 5396.694588267158, 0.0, 0.0, 0.0, 0.0, 0.0, 0.0, 0.0, 0.07200000000000001, 0.03, 0.984, 192.0, 0.0, 0.0, 0.0, 0.0, 0.0, 0.0, 0.0, 0.0, 0.0, 1.740936392279893E9, 0.0, 2025-03-02 19:26:32.279
73.0, 5279.258522898976, 0.0, 0.0, 0.0, 0.0, 0.0, 0.0, 0.0, 0.07200000000000001, 0.03, 0.982, 192.0, 2.0, 64.0, 0.0, 240.0, 30.0, 176.0, 0.0, 0.0, 0.0, 1.740936392279915E9, 0.0, 2025-03-02 19:26:32.279
74.0, 5353.265148790497, 0.0, 0.0, 0.0, 0.0, 0.0, 0.0, 0.0, 0.07200000000000001, 0.03, 0.982, 192.0, 0.0, 0.0, 0.0, 0.0, 0.0, 0.0, 0.0, 0.0, 0.0, 1.740936392279939E9, 0.0, 2025-03-02 19:26:32.279
75.0, 5412.8772512528, 0.0, 0.0, 0.0, 0.0, 0.0, 0.0, 0.0, 0.07200000000000001, 0.03, 0.982, 192.0, 0.0, 0.0, 0.0, 0.0, 0.0, 0.0, 0.0, 0.0, 0.0, 1.740936392338941E9, 0.0, 2025-03-02 19:26:32.338
76.0, 5463.41454546625, 0.0, 0.0, 0.0, 0.0, 0.0, 0.0, 0.0, 0.07200000000000001, 0.03, 0.982, 192.0, 0.0, 0.0, 0.0, 0.0, 0.0, 0.0, 0.0, 0.0, 0.0, 1.740936392338987E9, 0.0, 2025-03-02 19:26:32.338
77.0, 5404.160070915231, 0.0, 0.0, 0.0, 0.0, 0.0, 0.0, 0.0, 0.07200000000000001, 0.03, 0.982, 192.0, 0.0, 0.0, 0.0, 0.0, 0.0, 0.0, 0.0, 0.0, 0.0, 1.740936392339012E9, 0.0, 2025-03-02 19:26:32.339
78.0, 5283.23713341202, 0.0, 0.0, 0.0, 0.0, 0.0, 0.0, 0.0, 0.07200000000000001, 0.03, 0.982, 192.0, 0.0, 0.0, 0.0, 0.0, 0.0, 0.0, 0.0, 0.0, 0.0, 1.740936392339064E9, 0.0, 2025-03-02 19:26:32.339
79.0, 5321.81624434188, 0.0, 0.0, 0.0, 0.0, 0.0, 0.0, 0.0, 0.07200000000000001, 0.03, 0.982, 192.0, 0.0, 0.0, 0.0, 0.0, 0.0, 0.0, 0.0, 0.0, 0.0, 1.74093639233909E9, 0.0, 2025-03-02 19:26:32.339
80.0, 5432.569138117926, 0.0, 0.0, 0.0, 0.0, 0.0, 0.0, 0.0, 0.07200000000000001, 0.03, 0.982, 192.0, 0.0, 0.0, 0.0, 0.0, 0.0, 0.0, 0.0, 0.0, 0.0, 1.740936392339112E9, 0.0, 2025-03-02 19:26:32.339
81.0, 5477.809068895468, 0.0, 0.0, 0.0, 0.0, 0.0, 0.0, 0.0, 0.07200000000000001, 0.03, 0.982, 192.0, 0.0, 0.0, 0.0, 0.0, 0.0, 0.0, 0.0, 0.0, 0.0, 1.740936392339135E9, 0.0, 2025-03-02 19:26:32.339
82.0, 5395.577001044393, 0.0, 0.0, 0.0, 0.0, 0.0, 0.0, 0.0, 0.07200000000000001, 0.03, 0.982, 192.0, 0.0, 0.0, 0.0, 0.0, 0.0, 0.0, 0.0, 0.0, 0.0, 1.740936392339158E9, 0.0, 2025-03-02 19:26:32.339
83.0, 5276.0398716974105, 0.0, 0.0, 0.0, 0.0, 0.0, 0.0, 0.0, 0.07200000000000001, 0.028, 0.986, 192.0, 2.0, 64.0, 0.0, 224.0, 30.0, 208.0, 0.0, 0.0, 0.0, 1.740936392339181E9, 0.0, 2025-03-02 19:26:32.339
84.0, 5314.1272442492545, 0.0, 0.0, 0.0, 0.0, 0.0, 0.0, 0.0, 0.07200000000000001, 0.028, 0.986, 192.0, 0.0, 0.0, 0.0, 0.0, 0.0, 0.0, 0.0, 0.0, 0.0, 1.740936392339205E9, 0.0, 2025-03-02 19:26:32.339
85.0, 5411.558498329938, 0.0, 0.0, 0.0, 0.0, 0.0, 0.0, 0.0, 0.07200000000000001, 0.028, 0.986, 192.0, 0.0, 0.0, 0.0, 0.0, 0.0, 0.0, 0.0, 0.0, 0.0, 1.740936392339228E9, 0.0, 2025-03-02 19:26:32.339
86.0, 5409.368027373317, 0.0, 0.0, 0.0, 0.0, 0.0, 0.0, 0.0, 0.07200000000000001, 0.028, 0.986, 192.0, 0.0, 0.0, 0.0, 0.0, 0.0, 0.0, 0.0, 0.0, 0.0, 1.740936392339251E9, 0.0, 2025-03-02 19:26:32.339
87.0, 5350.24766328903, 0.0, 0.0, 0.0, 0.0, 0.0, 0.0, 0.0, 0.07200000000000001, 0.028, 0.986, 192.0, 0.0, 0.0, 0.0, 0.0, 0.0, 0.0, 0.0, 0.0, 0.0, 1.740936392339274E9, 0.0, 2025-03-02 19:26:32.339
88.0, 5295.1729649511535, 0.0, 0.0, 0.0, 0.0, 0.0, 0.0, 0.0, 0.07200000000000001, 0.028, 0.986, 192.0, 0.0, 0.0, 0.0, 0.0, 0.0, 0.0, 0.0, 0.0, 0.0, 1.740936392339296E9, 0.0, 2025-03-02 19:26:32.339
89.0, 5311.6685523591705, 0.0, 0.0, 0.0, 0.0, 0.0, 0.0, 0.0, 0.07200000000000001, 0.028, 0.986, 192.0, 0.0, 0.0, 0.0, 0.0, 0.0, 0.0, 0.0, 0.0, 0.0, 1.740936392339366E9, 0.0, 2025-03-02 19:26:32.339
90.0, 5350.7617534115025, 0.0, 0.0, 0.0, 0.0, 0.0, 0.0, 0.0, 0.07200000000000001, 0.028, 0.986, 192.0, 0.0, 0.0, 0.0, 0.0, 0.0, 0.0, 0.0, 0.0, 0.0, 1.740936392398902E9, 0.0, 2025-03-02 19:26:32.398
91.0, 5380.154297370231, 0.0, 0.0, 0.0, 0.0, 0.0, 0.0, 0.0, 0.07200000000000001, 0.028, 0.986, 192.0, 0.0, 0.0, 0.0, 0.0, 0.0, 0.0, 0.0, 0.0, 0.0, 1.740936392398949E9, 0.0, 2025-03-02 19:26:32.398
92.0, 5370.945378654645, 0.0, 0.0, 0.0, 0.0, 0.0, 0.0, 0.0, 0.07200000000000001, 0.028, 0.986, 192.0, 0.0, 0.0, 0.0, 0.0, 0.0, 0.0, 0.0, 0.0, 0.0, 1.740936392398974E9, 0.0, 2025-03-02 19:26:32.398
93.0, 5350.515884222494, 0.0, 0.0, 0.0, 0.0, 0.0, 0.0, 0.0, 0.07, 0.026000000000000002, 0.984, 192.0, 2.0, 48.0, 0.0, 208.0, 30.0, 192.0, 0.0, 0.0, 0.0, 1.740936392398998E9, 0.0, 2025-03-02 19:26:32.398
94.0, 5341.798703884924, 0.0, 0.0, 0.0, 0.0, 0.0, 0.0, 0.0, 0.07, 0.026000000000000002, 0.984, 192.0, 0.0, 0.0, 0.0, 0.0, 0.0, 0.0, 0.0, 0.0, 0.0, 1.740936392399022E9, 0.0, 2025-03-02 19:26:32.399
95.0, 5312.964953537578, 0.0, 0.0, 0.0, 0.0, 0.0, 0.0, 0.0, 0.07, 0.026000000000000002, 0.984, 192.0, 0.0, 0.0, 0.0, 0.0, 0.0, 0.0, 0.0, 0.0, 0.0, 1.740936392399045E9, 0.0, 2025-03-02 19:26:32.399
96.0, 5383.998797416544, 0.0, 0.0, 0.0, 0.0, 0.0, 0.0, 0.0, 0.07, 0.026000000000000002, 0.984, 192.0, 0.0, 0.0, 0.0, 0.0, 0.0, 0.0, 0.0, 0.0, 0.0, 1.740936392399068E9, 0.0, 2025-03-02 19:26:32.399
97.0, 5403.3554081148395, 0.0, 0.0, 0.0, 0.0, 0.0, 0.0, 0.0, 0.07, 0.026000000000000002, 0.984, 192.0, 0.0, 0.0, 0.0, 0.0, 0.0, 0.0, 0.0, 0.0, 0.0, 1.740936392399105E9, 0.0, 2025-03-02 19:26:32.399
98.0, 5286.165211935665, 0.0, 0.0, 0.0, 0.0, 0.0, 0.0, 0.0, 0.07, 0.026000000000000002, 0.984, 192.0, 0.0, 0.0, 0.0, 0.0, 0.0, 0.0, 0.0, 0.0, 0.0, 1.740936392399147E9, 0.0, 2025-03-02 19:26:32.399
99.0, 5298.682188830637, 0.0, 0.0, 0.0, 0.0, 0.0, 0.0, 0.0, 0.07, 0.026000000000000002, 0.984, 192.0, 0.0, 0.0, 0.0, 0.0, 0.0, 0.0, 0.0, 0.0, 0.0, 1.74093639239917E9, 0.0, 2025-03-02 19:26:32.399
100.0, 5374.789878700957, 0.0, 0.0, 0.0, 0.0, 0.0, 0.0, 0.0, 0.07, 0.026000000000000002, 0.984, 192.0, 0.0, 0.0, 0.0, 0.0, 0.0, 0.0, 0.0, 0.0, 0.0, 1.740936392399193E9, 0.0, 2025-03-02 19:26:32.399
101.0, 5444.639080123792, 0.0, 0.0, 0.0, 0.0, 0.0, 0.0, 0.0, 0.07, 0.026000000000000002, 0.984, 192.0, 0.0, 0.0, 0.0, 0.0, 0.0, 0.0, 0.0, 0.0, 0.0, 1.740936392399216E9, 0.0, 2025-03-02 19:26:32.399
102.0, 5408.630419806293, 0.0, 0.0, 0.0, 0.0, 0.0, 0.0, 0.0, 0.07, 0.022, 0.986, 192.0, 2.0, 48.0, 0.0, 176.0, 30.0, 208.0, 0.0, 0.0, 0.0, 1.740936392399239E9, 0.0, 2025-03-02 19:26:32.399
103.0, 5234.487978754995, 0.0, 0.0, 0.0, 0.0, 0.0, 0.0, 0.0, 0.07, 0.022, 0.986, 192.0, 0.0, 0.0, 0.0, 0.0, 0.0, 0.0, 0.0, 0.0, 0.0, 1.740936392399263E9, 0.0, 2025-03-02 19:26:32.399
104.0, 5238.108961356755, 0.0, 0.0, 0.0, 0.0, 0.0, 0.0, 0.0, 0.07, 0.022, 0.986, 192.0, 0.0, 0.0, 0.0, 0.0, 0.0, 0.0, 0.0, 0.0, 0.0, 1.740936392399286E9, 0.0, 2025-03-02 19:26:32.399
105.0, 5325.258412987997, 0.0, 0.0, 0.0, 0.0, 0.0, 0.0, 0.0, 0.07, 0.022, 0.986, 192.0, 0.0, 0.0, 0.0, 0.0, 0.0, 0.0, 0.0, 0.0, 0.0, 1.74093639245891E9, 0.0, 2025-03-02 19:26:32.458
106.0, 5383.060024149421, 0.0, 0.0, 0.0, 0.0, 0.0, 0.0, 0.0, 0.07, 0.022, 0.986, 192.0, 0.0, 0.0, 0.0, 0.0, 0.0, 0.0, 0.0, 0.0, 0.0, 1.74093639245904E9, 0.0, 2025-03-02 19:26:32.459
107.0, 5320.050456529911, 0.0, 0.0, 0.0, 0.0, 0.0, 0.0, 0.0, 0.07, 0.022, 0.986, 192.0, 0.0, 0.0, 0.0, 0.0, 0.0, 0.0, 0.0, 0.0, 0.0, 1.740936392459093E9, 0.0, 2025-03-02 19:26:32.459
108.0, 5283.706520045581, 0.0, 0.0, 0.0, 0.0, 0.0, 0.0, 0.0, 0.07, 0.022, 0.986, 192.0, 0.0, 0.0, 0.0, 0.0, 0.0, 0.0, 0.0, 0.0, 0.0, 1.740936392459138E9, 0.0, 2025-03-02 19:26:32.459
109.0, 5323.134997264743, 0.0, 0.0, 0.0, 0.0, 0.0, 0.0, 0.0, 0.07, 0.022, 0.986, 192.0, 0.0, 0.0, 0.0, 0.0, 0.0, 0.0, 0.0, 0.0, 0.0, 1.740936392459181E9, 0.0, 2025-03-02 19:26:32.459
110.0, 5400.024998190999, 0.0, 0.0, 0.0, 0.0, 0.0, 0.0, 0.0, 0.07, 0.022, 0.986, 192.0, 0.0, 0.0, 0.0, 0.0, 0.0, 0.0, 0.0, 0.0, 0.0, 1.740936392459225E9, 0.0, 2025-03-02 19:26:32.459
111.0, 5429.082265982898, 0.0, 0.0, 0.0, 0.0, 0.0, 0.0, 0.0, 0.07, 0.022, 0.986, 192.0, 0.0, 0.0, 0.0, 0.0, 0.0, 0.0, 0.0, 0.0, 0.0, 1.740936392459268E9, 0.0, 2025-03-02 19:26:32.459
112.0, 5400.382626102284, 0.0, 0.0, 0.0, 0.0, 0.0, 0.0, 0.0, 0.07, 0.03, 0.986, 192.0, 2.0, 48.0, 0.0, 240.0, 30.0, 208.0, 0.0, 0.0, 0.0, 1.740936392459312E9, 0.0, 2025-03-02 19:26:32.459
113.0, 5346.20199754262, 0.0, 0.0, 0.0, 0.0, 0.0, 0.0, 0.0, 0.07, 0.03, 0.986, 192.0, 0.0, 0.0, 0.0, 0.0, 0.0, 0.0, 0.0, 0.0, 0.0, 1.740936392459357E9, 0.0, 2025-03-02 19:26:32.459
114.0, 5382.478878793583, 0.0, 0.0, 0.0, 0.0, 0.0, 0.0, 0.0, 0.07, 0.03, 0.986, 192.0, 0.0, 0.0, 0.0, 0.0, 0.0, 0.0, 0.0, 0.0, 0.0, 1.740936392459401E9, 0.0, 2025-03-02 19:26:32.459
115.0, 5429.506949127549, 0.0, 0.0, 0.0, 0.0, 0.0, 0.0, 0.0, 0.07, 0.03, 0.986, 192.0, 0.0, 0.0, 0.0, 0.0, 0.0, 0.0, 0.0, 0.0, 0.0, 1.740936392459446E9, 0.0, 2025-03-02 19:26:32.459
116.0, 5466.186161778708, 0.0, 0.0, 0.0, 0.0, 0.0, 0.0, 0.0, 0.07, 0.03, 0.986, 192.0, 0.0, 0.0, 0.0, 0.0, 0.0, 0.0, 0.0, 0.0, 0.0, 1.74093639245949E9, 0.0, 2025-03-02 19:26:32.459
117.0, 5432.077399739909, 0.0, 0.0, 0.0, 0.0, 0.0, 0.0, 0.0, 0.07, 0.03, 0.986, 192.0, 0.0, 0.0, 0.0, 0.0, 0.0, 0.0, 0.0, 0.0, 0.0, 1.740936392459552E9, 0.0, 2025-03-02 19:26:32.459
118.0, 5330.0416863014325, 0.0, 0.0, 0.0, 0.0, 0.0, 0.0, 0.0, 0.07, 0.03, 0.986, 192.0, 0.0, 0.0, 0.0, 0.0, 0.0, 0.0, 0.0, 0.0, 0.0, 1.740936392459598E9, 0.0, 2025-03-02 19:26:32.459
119.0, 5311.802662825902, 0.0, 0.0, 0.0, 0.0, 0.0, 0.0, 0.0, 0.07, 0.03, 0.986, 192.0, 0.0, 0.0, 0.0, 0.0, 0.0, 0.0, 0.0, 0.0, 0.0, 1.740936392459642E9, 0.0, 2025-03-02 19:26:32.459
120.0, 5395.152317899742, 0.0, 0.0, 0.0, 0.0, 0.0, 0.0, 0.0, 0.07, 0.03, 0.986, 192.0, 0.0, 0.0, 0.0, 0.0, 0.0, 0.0, 0.0, 0.0, 0.0, 1.740936392519258E9, 0.0, 2025-03-02 19:26:32.519
121.0, 5483.911095131766, 0.0, 0.0, 0.0, 0.0, 0.0, 0.0, 0.0, 0.07, 0.03, 0.986, 192.0, 0.0, 0.0, 0.0, 0.0, 0.0, 0.0, 0.0, 0.0, 0.0, 1.740936392519349E9, 0.0, 2025-03-02 19:26:32.519
122.0, 5414.620687320315, 0.0, 0.0, 0.0, 0.0, 0.0, 0.0, 0.0, 0.076, 0.03, 0.986, 192.0, 2.0, 96.0, 0.0, 240.0, 30.0, 208.0, 0.0, 0.0, 0.0, 1.740936392519396E9, 0.0, 2025-03-02 19:26:32.519
123.0, 5249.217778351042, 0.0, 0.0, 0.0, 0.0, 0.0, 0.0, 0.0, 0.076, 0.03, 0.986, 192.0, 0.0, 0.0, 0.0, 0.0, 0.0, 0.0, 0.0, 0.0, 0.0, 1.740936392519442E9, 0.0, 2025-03-02 19:26:32.519
124.0, 5257.6667377551485, 0.0, 0.0, 0.0, 0.0, 0.0, 0.0, 0.0, 0.076, 0.03, 0.986, 192.0, 0.0, 0.0, 0.0, 0.0, 0.0, 0.0, 0.0, 0.0, 0.0, 1.74093639251955E9, 0.0, 2025-03-02 19:26:32.519
