%OpenBCI Raw EXG Data
%Number of channels = 8
%Sample Rate = 250 Hz
%Board = OpenBCI_GUI$BoardCytonSerial
Sample Index, EXG Channel 0, EXG Channel 1, EXG Channel 2, EXG Channel 3, EXG Channel 4, EXG Channel 5, EXG Channel 6, EXG Channel 7, Accel Channel 0, Accel Channel 1, Accel Channel 2, Other, Other, Other, Other, Other, Other, Other, Analog Channel 0, Analog Channel 1, Analog Channel 2, Timestamp, Other, Timestamp (Formatted)
0.0, 0.0, 0.0, 0.0, 0.0, 0.0, 0.0, 0.0, 0.0, 0.034, -0.024, 0.986, 192.0, 1.0, 16.0, 255.0, 64.0, 30.0, 208.0, 0.0, 0.0, 0.0, 1.740938134449792E9, 0.0, 2025-03-02 19:55:34.449
1.0, 22131.624475911198, 12795.613741351814, 0.0, 0.0, 0.0, 0.0, 0.0, 17956.117445959742, 0.034, -0.024, 0.986, 192.0, 0.0, 0.0, 0.0, 0.0, 0.0, 0.0, 0.0, 0.0, 0.0, 1.740938134511476E9, 0.0, 2025-03-02 19:55:34.511
2.0, 22315.51227754501, 12915.530850354535, 0.0, 0.0, 0.0, 0.0, 0.0, 15985.610006524326, 0.034, -0.024, 0.986, 192.0, 0.0, 0.0, 0.0, 0.0, 0.0, 0.0, 0.0, 0.0, 0.0, 1.740938134511518E9, 0.0, 2025-03-02 19:55:34.511
3.0, 22292.624091222777, 13060.6830788473, 0.0, 0.0, 0.0, 0.0, 0.0, 17410.91369520589, 0.034, -0.024, 0.986, 192.0, 0.0, 0.0, 0.0, 0.0, 0.0, 0.0, 0.0, 0.0, 0.0, 1.740938134511542E9, 0.0, 2025-03-02 19:55:34.511
4.0, 22116.4699931705, 12900.286960636016, 0.0, 0.0, 0.0, 0.0, 0.0, 18911.20748653501, 0.034, -0.024, 0.986, 192.0, 0.0, 0.0, 0.0, 0.0, 0.0, 0.0, 0.0, 0.0, 0.0, 1.740938134511565E9, 0.0, 2025-03-02 19:55:34.511
5.0, 22080.99777471993, 12784.549627846436, 0.0, 0.0, 0.0, 0.0, 0.0, 18520.342531245056, 0.034, -0.024, 0.986, 192.0, 0.0, 0.0, 0.0, 0.0, 0.0, 0.0, 0.0, 0.0, 0.0, 1.740938134511587E9, 0.0, 2025-03-02 19:55:34.511
6.0, 22116.581751892776, 12780.705127800124, 0.0, 0.0, 0.0, 0.0, 0.0, 17976.5916438808, 0.034, -0.024, 0.986, 192.0, 0.0, 0.0, 0.0, 0.0, 0.0, 0.0, 0.0, 0.0, 0.0, 1.740938134511609E9, 0.0, 2025-03-02 19:55:34.511
7.0, 22298.480248270065, 12899.92933272473, 0.0, 0.0, 0.0, 0.0, 0.0, 15991.443811827161, 0.034, -0.024, 0.986, 192.0, 0.0, 0.0, 0.0, 0.0, 0.0, 0.0, 0.0, 0.0, 0.0, 1.740938134511631E9, 0.0, 2025-03-02 19:55:34.511
8.0, 22281.98466086205, 13049.14957870836, 0.0, 0.0, 0.0, 0.0, 0.0, 17379.1518663349, 0.034, -0.022, 0.992, 192.0, 1.0, 16.0, 255.0, 80.0, 31.0, 0.0, 0.0, 0.0, 0.0, 1.740938134511653E9, 0.0, 2025-03-02 19:55:34.511
9.0, 22097.56041736131, 12877.287015591504, 0.0, 0.0, 0.0, 0.0, 0.0, 18912.950922602526, 0.034, -0.022, 0.992, 192.0, 0.0, 0.0, 0.0, 0.0, 0.0, 0.0, 0.0, 0.0, 0.0, 1.740938134511677E9, 0.0, 2025-03-02 19:55:34.511
10.0, 22087.613891078698, 12783.946130746142, 0.0, 0.0, 0.0, 0.0, 0.0, 18519.649627166942, 0.034, -0.022, 0.992, 192.0, 0.0, 0.0, 0.0, 0.0, 0.0, 0.0, 0.0, 0.0, 0.0, 1.740938134511699E9, 0.0, 2025-03-02 19:55:34.511
11.0, 22131.400958466646, 12781.599197578336, 0.0, 0.0, 0.0, 0.0, 0.0, 17975.474056658037, 0.034, -0.022, 0.992, 192.0, 0.0, 0.0, 0.0, 0.0, 0.0, 0.0, 0.0, 0.0, 0.0, 1.740938134511721E9, 0.0, 2025-03-02 19:55:34.511
12.0, 22310.818411209395, 12887.010024429563, 0.0, 0.0, 0.0, 0.0, 0.0, 15991.220294382609, 0.034, -0.022, 0.992, 192.0, 0.0, 0.0, 0.0, 0.0, 0.0, 0.0, 0.0, 0.0, 0.0, 1.740938134511743E9, 0.0, 2025-03-02 19:55:34.511
13.0, 22294.054602867916, 13039.851253014953, 0.0, 0.0, 0.0, 0.0, 0.0, 17359.549386447597, 0.034, -0.022, 0.992, 192.0, 0.0, 0.0, 0.0, 0.0, 0.0, 0.0, 0.0, 0.0, 0.0, 1.740938134511765E9, 0.0, 2025-03-02 19:55:34.511
14.0, 22113.743080346954, 12891.770945998544, 0.0, 0.0, 0.0, 0.0, 0.0, 18916.638960437653, 0.034, -0.022, 0.992, 192.0, 0.0, 0.0, 0.0, 0.0, 0.0, 0.0, 0.0, 0.0, 0.0, 1.740938134511787E9, 0.0, 2025-03-02 19:55:34.511
15.0, 22085.825751522276, 12786.226008680584, 0.0, 0.0, 0.0, 0.0, 0.0, 18514.933409086872, 0.034, -0.022, 0.992, 192.0, 0.0, 0.0, 0.0, 0.0, 0.0, 0.0, 0.0, 0.0, 0.0, 1.740938134511809E9, 0.0, 2025-03-02 19:55:34.511
16.0, 22135.84895561325, 12799.614703609313, 0.0, 0.0, 0.0, 0.0, 0.0, 17980.70436486058, 0.034, -0.022, 0.992, 192.0, 0.0, 0.0, 0.0, 0.0, 0.0, 0.0, 0.0, 0.0, 0.0, 1.740938134571673E9, 0.0, 2025-03-02 19:55:34.571
17.0, 22312.42773681018, 12906.634856061322, 0.0, 0.0, 0.0, 0.0, 0.0, 15987.800477480947, 0.03, -0.02, 0.99, 192.0, 0.0, 240.0, 255.0, 96.0, 30.0, 240.0, 0.0, 0.0, 0.0, 1.740938134571732E9, 0.0, 2025-03-02 19:55:34.571
18.0, 22286.790285919942, 13045.729761806699, 0.0, 0.0, 0.0, 0.0, 0.0, 17334.47072916874, 0.03, -0.02, 0.99, 192.0, 0.0, 0.0, 0.0, 0.0, 0.0, 0.0, 0.0, 0.0, 0.0, 1.740938134571831E9, 0.0, 2025-03-02 19:55:34.571
19.0, 22107.506943643923, 12896.420108845248, 0.0, 0.0, 0.0, 0.0, 0.0, 18925.98198961997, 0.03, -0.02, 0.99, 192.0, 0.0, 0.0, 0.0, 0.0, 0.0, 0.0, 0.0, 0.0, 0.0, 1.740938134571873E9, 0.0, 2025-03-02 19:55:34.571
20.0, 22083.32235614328, 12787.880037770277, 0.0, 0.0, 0.0, 0.0, 0.0, 18524.38819699147, 0.03, -0.02, 0.99, 192.0, 0.0, 0.0, 0.0, 0.0, 0.0, 0.0, 0.0, 0.0, 0.0, 1.740938134571913E9, 0.0, 2025-03-02 19:55:34.571
21.0, 22129.18813576557, 12797.066604741407, 0.0, 0.0, 0.0, 0.0, 0.0, 18010.9015716197, 0.03, -0.02, 0.99, 192.0, 0.0, 0.0, 0.0, 0.0, 0.0, 0.0, 0.0, 0.0, 0.0, 1.740938134571954E9, 0.0, 2025-03-02 19:55:34.571
22.0, 22317.07689965688, 12924.717417325666, 0.0, 0.0, 0.0, 0.0, 0.0, 16003.35729162184, 0.03, -0.02, 0.99, 192.0, 0.0, 0.0, 0.0, 0.0, 0.0, 0.0, 0.0, 0.0, 0.0, 1.740938134571995E9, 0.0, 2025-03-02 19:55:34.571
23.0, 22308.180905363668, 13074.339994709491, 0.0, 0.0, 0.0, 0.0, 0.0, 17320.813813306548, 0.03, -0.02, 0.99, 192.0, 0.0, 0.0, 0.0, 0.0, 0.0, 0.0, 0.0, 0.0, 0.0, 1.740938134572035E9, 0.0, 2025-03-02 19:55:34.572
24.0, 22117.229952481983, 12907.439518861715, 0.0, 0.0, 0.0, 0.0, 0.0, 18926.160803575614, 0.03, -0.02, 0.99, 192.0, 0.0, 0.0, 0.0, 0.0, 0.0, 0.0, 0.0, 0.0, 0.0, 1.740938134572076E9, 0.0, 2025-03-02 19:55:34.572
25.0, 22086.675117811577, 12794.049119239942, 0.0, 0.0, 0.0, 0.0, 0.0, 18526.86924062601, 0.03, -0.02, 0.99, 192.0, 0.0, 0.0, 0.0, 0.0, 0.0, 0.0, 0.0, 0.0, 0.0, 1.740938134572116E9, 0.0, 2025-03-02 19:55:34.572
26.0, 22143.515603961423, 12797.513639630513, 0.0, 0.0, 0.0, 0.0, 0.0, 18011.66153093118, 0.03, -0.02, 0.99, 192.0, 0.0, 0.0, 0.0, 0.0, 0.0, 0.0, 0.0, 0.0, 0.0, 1.740938134572157E9, 0.0, 2025-03-02 19:55:34.572
27.0, 22333.527783575988, 12900.868105991854, 0.0, 0.0, 0.0, 0.0, 0.0, 15981.743154733558, 0.032, -0.018000000000000002, 0.992, 192.0, 1.0, 0.0, 255.0, 112.0, 31.0, 0.0, 0.0, 0.0, 0.0, 1.740938134572198E9, 0.0, 2025-03-02 19:55:34.572
28.0, 22306.772745462986, 13051.943546765275, 0.0, 0.0, 0.0, 0.0, 0.0, 17275.305661595543, 0.032, -0.018000000000000002, 0.992, 192.0, 0.0, 0.0, 0.0, 0.0, 0.0, 0.0, 0.0, 0.0, 0.0, 1.740938134572363E9, 0.0, 2025-03-02 19:55:34.572
29.0, 22105.785859320862, 12898.208248401672, 0.0, 0.0, 0.0, 0.0, 0.0, 18917.018940093392, 0.032, -0.018000000000000002, 0.992, 192.0, 0.0, 0.0, 0.0, 0.0, 0.0, 0.0, 0.0, 0.0, 0.0, 1.740938134572413E9, 0.0, 2025-03-02 19:55:34.572
30.0, 22083.300004398825, 12786.561284847414, 0.0, 0.0, 0.0, 0.0, 0.0, 18516.60978992102, 0.032, -0.018000000000000002, 0.992, 192.0, 0.0, 0.0, 0.0, 0.0, 0.0, 0.0, 0.0, 0.0, 0.0, 1.740938134572457E9, 0.0, 2025-03-02 19:55:34.572
31.0, 22133.725539889998, 12784.10259295733, 0.0, 0.0, 0.0, 0.0, 0.0, 18014.701368177102, 0.032, -0.018000000000000002, 0.992, 192.0, 0.0, 0.0, 0.0, 0.0, 0.0, 0.0, 0.0, 0.0, 0.0, 1.740938134631146E9, 0.0, 2025-03-02 19:55:34.631
32.0, 22322.4189665817, 12891.256855876072, 0.0, 0.0, 0.0, 0.0, 0.0, 15956.552738732427, 0.032, -0.018000000000000002, 0.992, 192.0, 0.0, 0.0, 0.0, 0.0, 0.0, 0.0, 0.0, 0.0, 0.0, 1.740938134631215E9, 0.0, 2025-03-02 19:55:34.631
33.0, 22310.103155386827, 13052.100008976462, 0.0, 0.0, 0.0, 0.0, 0.0, 17212.340797464945, 0.032, -0.018000000000000002, 0.992, 192.0, 0.0, 0.0, 0.0, 0.0, 0.0, 0.0, 0.0, 0.0, 0.0, 1.740938134631243E9, 0.0, 2025-03-02 19:55:34.631
34.0, 22120.85093508374, 12906.523097339046, 0.0, 0.0, 0.0, 0.0, 0.0, 18903.116155042193, 0.032, -0.018000000000000002, 0.992, 192.0, 0.0, 0.0, 0.0, 0.0, 0.0, 0.0, 0.0, 0.0, 0.0, 1.740938134631327E9, 0.0, 2025-03-02 19:55:34.631
35.0, 22086.429248622568, 12779.900464999731, 0.0, 0.0, 0.0, 0.0, 0.0, 18494.347452443537, 0.032, -0.018000000000000002, 0.992, 192.0, 0.0, 0.0, 0.0, 0.0, 0.0, 0.0, 0.0, 0.0, 0.0, 1.740938134631352E9, 0.0, 2025-03-02 19:55:34.631
36.0, 22134.686664901576, 12781.308624900417, 0.0, 0.0, 0.0, 0.0, 0.0, 18007.749975651503, 0.032, -0.018000000000000002, 0.992, 192.0, 0.0, 0.0, 0.0, 0.0, 0.0, 0.0, 0.0, 0.0, 0.0, 1.74093813463139E9, 0.0, 2025-03-02 19:55:34.631
37.0, 22326.50933581702, 12894.095527421896, 0.0, 0.0, 0.0, 0.0, 0.0, 15936.279706511463, 0.036000000000000004, -0.016, 0.998, 192.0, 1.0, 32.0, 255.0, 128.0, 31.0, 48.0, 0.0, 0.0, 0.0, 1.740938134631432E9, 0.0, 2025-03-02 19:55:34.631
38.0, 22315.065242655903, 13063.007660270652, 0.0, 0.0, 0.0, 0.0, 0.0, 17156.774360749052, 0.036000000000000004, -0.016, 0.998, 192.0, 0.0, 0.0, 0.0, 0.0, 0.0, 0.0, 0.0, 0.0, 0.0, 1.740938134631476E9, 0.0, 2025-03-02 19:55:34.631
39.0, 22115.307702458824, 12918.056597477986, 0.0, 0.0, 0.0, 0.0, 0.0, 18910.939265601548, 0.036000000000000004, -0.016, 0.998, 192.0, 0.0, 0.0, 0.0, 0.0, 0.0, 0.0, 0.0, 0.0, 0.0, 1.740938134631512E9, 0.0, 2025-03-02 19:55:34.631
40.0, 22086.116324200193, 12798.050081497442, 0.0, 0.0, 0.0, 0.0, 0.0, 18538.71566518732, 0.036000000000000004, -0.016, 0.998, 192.0, 0.0, 0.0, 0.0, 0.0, 0.0, 0.0, 0.0, 0.0, 0.0, 1.740938134631558E9, 0.0, 2025-03-02 19:55:34.631
41.0, 22133.56907767881, 12803.280389699983, 0.0, 0.0, 0.0, 0.0, 0.0, 18074.42522936168, 0.036000000000000004, -0.016, 0.998, 192.0, 0.0, 0.0, 0.0, 0.0, 0.0, 0.0, 0.0, 0.0, 0.0, 1.740938134631602E9, 0.0, 2025-03-02 19:55:34.631
42.0, 22316.741623490052, 12887.255893618572, 0.0, 0.0, 0.0, 0.0, 0.0, 15951.054209596421, 0.036000000000000004, -0.016, 0.998, 192.0, 0.0, 0.0, 0.0, 0.0, 0.0, 0.0, 0.0, 0.0, 0.0, 1.740938134631647E9, 0.0, 2025-03-02 19:55:34.631
43.0, 22317.479231057077, 13056.25743344515, 0.0, 0.0, 0.0, 0.0, 0.0, 17086.276958737013, 0.036000000000000004, -0.016, 0.998, 192.0, 0.0, 0.0, 0.0, 0.0, 0.0, 0.0, 0.0, 0.0, 0.0, 1.740938134631682E9, 0.0, 2025-03-02 19:55:34.631
44.0, 22134.15022303465, 12933.41224591878, 0.0, 0.0, 0.0, 0.0, 0.0, 18909.754623145418, 0.036000000000000004, -0.016, 0.998, 192.0, 0.0, 0.0, 0.0, 0.0, 0.0, 0.0, 0.0, 0.0, 0.0, 1.740938134631715E9, 0.0, 2025-03-02 19:55:34.631
45.0, 22097.739231316955, 12800.978160021086, 0.0, 0.0, 0.0, 0.0, 0.0, 18584.3355756206, 0.036000000000000004, -0.016, 0.998, 192.0, 0.0, 0.0, 0.0, 0.0, 0.0, 0.0, 0.0, 0.0, 0.0, 1.740938134631752E9, 0.0, 2025-03-02 19:55:34.631
46.0, 22133.166746278614, 12788.774107548488, 0.0, 0.0, 0.0, 0.0, 0.0, 18116.8264885934, 0.036000000000000004, -0.016, 0.998, 192.0, 0.0, 0.0, 0.0, 0.0, 0.0, 0.0, 0.0, 0.0, 0.0, 1.74093813469075E9, 0.0, 2025-03-02 19:55:34.690
47.0, 22318.57446653539, 12881.26562610455, 0.0, 0.0, 0.0, 0.0, 0.0, 15908.63059862025, 0.04, -0.022, 0.998, 192.0, 1.0, 64.0, 255.0, 80.0, 31.0, 48.0, 0.0, 0.0, 0.0, 1.740938134690804E9, 0.0, 2025-03-02 19:55:34.690
48.0, 22323.983588693573, 13063.34293643748, 0.0, 0.0, 0.0, 0.0, 0.0, 17028.676513275685, 0.04, -0.022, 0.998, 192.0, 0.0, 0.0, 0.0, 0.0, 0.0, 0.0, 0.0, 0.0, 0.0, 1.740938134690833E9, 0.0, 2025-03-02 19:55:34.690
49.0, 22132.04915905585, 12946.37625770286, 0.0, 0.0, 0.0, 0.0, 0.0, 18958.861405713727, 0.04, -0.022, 0.998, 192.0, 0.0, 0.0, 0.0, 0.0, 0.0, 0.0, 0.0, 0.0, 0.0, 1.740938134690857E9, 0.0, 2025-03-02 19:55:34.690
50.0, 22088.306795156812, 12808.018959524508, 0.0, 0.0, 0.0, 0.0, 0.0, 18620.076015004637, 0.04, -0.022, 0.998, 192.0, 0.0, 0.0, 0.0, 0.0, 0.0, 0.0, 0.0, 0.0, 0.0, 1.740938134690889E9, 0.0, 2025-03-02 19:55:34.690
51.0, 22132.13856603367, 12800.285255942972, 0.0, 0.0, 0.0, 0.0, 0.0, 18138.7311981596, 0.04, -0.022, 0.998, 192.0, 0.0, 0.0, 0.0, 0.0, 0.0, 0.0, 0.0, 0.0, 0.0, 1.740938134690989E9, 0.0, 2025-03-02 19:55:34.690
52.0, 22317.635693268265, 12881.153867382272, 0.0, 0.0, 0.0, 0.0, 0.0, 15870.319708623852, 0.04, -0.022, 0.998, 192.0, 0.0, 0.0, 0.0, 0.0, 0.0, 0.0, 0.0, 0.0, 0.0, 1.740938134691014E9, 0.0, 2025-03-02 19:55:34.691
53.0, 22320.18379213617, 13063.54410213758, 0.0, 0.0, 0.0, 0.0, 0.0, 16945.371561690758, 0.04, -0.022, 0.998, 192.0, 0.0, 0.0, 0.0, 0.0, 0.0, 0.0, 0.0, 0.0, 0.0, 1.740938134691037E9, 0.0, 2025-03-02 19:55:34.691
54.0, 22125.164821763614, 12939.402513432804, 0.0, 0.0, 0.0, 0.0, 0.0, 18980.296728646368, 0.04, -0.022, 0.998, 192.0, 0.0, 0.0, 0.0, 0.0, 0.0, 0.0, 0.0, 0.0, 0.0, 1.740938134691061E9, 0.0, 2025-03-02 19:55:34.691
55.0, 22088.95499574602, 12802.475726899593, 0.0, 0.0, 0.0, 0.0, 0.0, 18666.79116091623, 0.04, -0.022, 0.998, 192.0, 0.0, 0.0, 0.0, 0.0, 0.0, 0.0, 0.0, 0.0, 0.0, 1.740938134691085E9, 0.0, 2025-03-02 19:55:34.691
56.0, 22140.185194037582, 12802.788651321967, 0.0, 0.0, 0.0, 0.0, 0.0, 18144.944983118177, 0.038, -0.02, 0.998, 192.0, 1.0, 48.0, 255.0, 96.0, 31.0, 48.0, 0.0, 0.0, 0.0, 1.740938134691108E9, 0.0, 2025-03-02 19:55:34.691
57.0, 22326.598742794842, 12869.821532943432, 0.0, 0.0, 0.0, 0.0, 0.0, 15804.449117714063, 0.038, -0.02, 0.998, 192.0, 0.0, 0.0, 0.0, 0.0, 0.0, 0.0, 0.0, 0.0, 0.0, 1.740938134691133E9, 0.0, 2025-03-02 19:55:34.691
58.0, 22325.481155572077, 13051.697677576265, 0.0, 0.0, 0.0, 0.0, 0.0, 16905.04901469338, 0.038, -0.02, 0.998, 192.0, 0.0, 0.0, 0.0, 0.0, 0.0, 0.0, 0.0, 0.0, 0.0, 1.740938134691157E9, 0.0, 2025-03-02 19:55:34.691
59.0, 22129.635170654677, 12924.918583025765, 0.0, 0.0, 0.0, 0.0, 0.0, 19021.58040065532, 0.038, -0.02, 0.998, 192.0, 0.0, 0.0, 0.0, 0.0, 0.0, 0.0, 0.0, 0.0, 0.0, 1.74093813469118E9, 0.0, 2025-03-02 19:55:34.691
60.0, 22093.22417893698, 12776.793572520444, 0.0, 0.0, 0.0, 0.0, 0.0, 18708.030129436273, 0.038, -0.02, 0.998, 192.0, 0.0, 0.0, 0.0, 0.0, 0.0, 0.0, 0.0, 0.0, 0.0, 1.740938134691225E9, 0.0, 2025-03-02 19:55:34.691
61.0, 22135.066644557315, 12772.434982351659, 0.0, 0.0, 0.0, 0.0, 0.0, 18199.527943078036, 0.038, -0.02, 0.998, 192.0, 0.0, 0.0, 0.0, 0.0, 0.0, 0.0, 0.0, 0.0, 0.0, 1.740938134751074E9, 0.0, 2025-03-02 19:55:34.751
62.0, 22319.066204913404, 12848.587375710891, 0.0, 0.0, 0.0, 0.0, 0.0, 15811.758138150948, 0.038, -0.02, 0.998, 192.0, 0.0, 0.0, 0.0, 0.0, 0.0, 0.0, 0.0, 0.0, 0.0, 1.740938134751118E9, 0.0, 2025-03-02 19:55:34.751
63.0, 22346.000056982048, 13071.523674908123, 0.0, 0.0, 0.0, 0.0, 0.0, 16859.89849089366, 0.038, -0.02, 0.998, 192.0, 0.0, 0.0, 0.0, 0.0, 0.0, 0.0, 0.0, 0.0, 0.0, 1.740938134751157E9, 0.0, 2025-03-02 19:55:34.751
64.0, 22144.968467351016, 12955.965156074186, 0.0, 0.0, 0.0, 0.0, 0.0, 19037.33838049631, 0.038, -0.02, 0.998, 192.0, 0.0, 0.0, 0.0, 0.0, 0.0, 0.0, 0.0, 0.0, 0.0, 1.740938134751178E9, 0.0, 2025-03-02 19:55:34.751
65.0, 22096.55458886082, 12790.428136638182, 0.0, 0.0, 0.0, 0.0, 0.0, 18727.140870945557, 0.038, -0.02, 0.998, 192.0, 0.0, 0.0, 0.0, 0.0, 0.0, 0.0, 0.0, 0.0, 0.0, 1.740938134751199E9, 0.0, 2025-03-02 19:55:34.751
66.0, 22136.519507946912, 12778.224084165584, 0.0, 0.0, 0.0, 0.0, 0.0, 18235.089568506428, 0.038, -0.016, 0.996, 192.0, 1.0, 48.0, 255.0, 128.0, 31.0, 32.0, 0.0, 0.0, 0.0, 1.740938134751248E9, 0.0, 2025-03-02 19:55:34.751
67.0, 22331.784347508474, 12861.998422384075, 0.0, 0.0, 0.0, 0.0, 0.0, 15783.639643626171, 0.038, -0.016, 0.996, 192.0, 0.0, 0.0, 0.0, 0.0, 0.0, 0.0, 0.0, 0.0, 0.0, 1.740938134751289E9, 0.0, 2025-03-02 19:55:34.751
68.0, 22348.928135505696, 13067.67917486181, 0.0, 0.0, 0.0, 0.0, 0.0, 16813.540972893356, 0.038, -0.016, 0.996, 192.0, 0.0, 0.0, 0.0, 0.0, 0.0, 0.0, 0.0, 0.0, 0.0, 1.74093813475138E9, 0.0, 2025-03-02 19:55:34.751
69.0, 22151.271659287413, 12956.591004918935, 0.0, 0.0, 0.0, 0.0, 0.0, 19079.29260483892, 0.038, -0.016, 0.996, 192.0, 0.0, 0.0, 0.0, 0.0, 0.0, 0.0, 0.0, 0.0, 0.0, 1.74093813475142E9, 0.0, 2025-03-02 19:55:34.751
70.0, 22106.389356421158, 12799.525296631491, 0.0, 0.0, 0.0, 0.0, 0.0, 18787.065897830238, 0.038, -0.016, 0.996, 192.0, 0.0, 0.0, 0.0, 0.0, 0.0, 0.0, 0.0, 0.0, 0.0, 1.740938134751458E9, 0.0, 2025-03-02 19:55:34.751
71.0, 22125.94713281955, 12773.820790507889, 0.0, 0.0, 0.0, 0.0, 0.0, 18302.10009838344, 0.038, -0.016, 0.996, 192.0, 0.0, 0.0, 0.0, 0.0, 0.0, 0.0, 0.0, 0.0, 0.0, 1.740938134751506E9, 0.0, 2025-03-02 19:55:34.751
72.0, 22312.42773681018, 12846.35220126536, 0.0, 0.0, 0.0, 0.0, 0.0, 15813.83685038529, 0.038, -0.016, 0.996, 192.0, 0.0, 0.0, 0.0, 0.0, 0.0, 0.0, 0.0, 0.0, 0.0, 1.740938134751528E9, 0.0, 2025-03-02 19:55:34.751
73.0, 22342.200260424648, 13071.031936530106, 0.0, 0.0, 0.0, 0.0, 0.0, 16795.50311511792, 0.038, -0.016, 0.996, 192.0, 0.0, 0.0, 0.0, 0.0, 0.0, 0.0, 0.0, 0.0, 0.0, 1.740938134751549E9, 0.0, 2025-03-02 19:55:34.751
74.0, 22144.38732199518, 12967.319842257482, 0.0, 0.0, 0.0, 0.0, 0.0, 19131.059244997414, 0.038, -0.016, 0.996, 192.0, 0.0, 0.0, 0.0, 0.0, 0.0, 0.0, 0.0, 0.0, 0.0, 1.74093813475157E9, 0.0, 2025-03-02 19:55:34.751
75.0, 22087.189207934047, 12800.128793731785, 0.0, 0.0, 0.0, 0.0, 0.0, 18875.131770984146, 0.038, -0.016, 0.996, 192.0, 0.0, 0.0, 0.0, 0.0, 0.0, 0.0, 0.0, 0.0, 0.0, 1.740938134751591E9, 0.0, 2025-03-02 19:55:34.751
76.0, 22118.302836215837, 12785.33193890237, 0.0, 0.0, 0.0, 0.0, 0.0, 18417.479803261736, 0.03, -0.022, 0.99, 192.0, 0.0, 240.0, 255.0, 80.0, 30.0, 240.0, 0.0, 0.0, 0.0, 1.740938134811309E9, 0.0, 2025-03-02 19:55:34.811
77.0, 22308.337367574855, 12850.219053056127, 0.0, 0.0, 0.0, 0.0, 0.0, 15899.801659560402, 0.03, -0.022, 0.99, 192.0, 0.0, 0.0, 0.0, 0.0, 0.0, 0.0, 0.0, 0.0, 0.0, 1.74093813481138E9, 0.0, 2025-03-02 19:55:34.811
78.0, 22327.649274784242, 13070.674308618822, 0.0, 0.0, 0.0, 0.0, 0.0, 16839.245479016958, 0.03, -0.022, 0.99, 192.0, 0.0, 0.0, 0.0, 0.0, 0.0, 0.0, 0.0, 0.0, 0.0, 1.740938134811426E9, 0.0, 2025-03-02 19:55:34.811
79.0, 22125.924781075097, 12960.23433926515, 0.0, 0.0, 0.0, 0.0, 0.0, 19228.33403686691, 0.03, -0.022, 0.99, 192.0, 0.0, 0.0, 0.0, 0.0, 0.0, 0.0, 0.0, 0.0, 0.0, 1.740938134811477E9, 0.0, 2025-03-02 19:55:34.811
80.0, 22078.293213640834, 12785.309587157917, 0.0, 0.0, 0.0, 0.0, 0.0, 19000.726223078516, 0.03, -0.022, 0.99, 192.0, 0.0, 0.0, 0.0, 0.0, 0.0, 0.0, 0.0, 0.0, 0.0, 1.740938134811534E9, 0.0, 2025-03-02 19:55:34.811
81.0, 22114.637150125167, 12776.860627753811, 0.0, 0.0, 0.0, 0.0, 0.0, 18519.269647511202, 0.03, -0.022, 0.99, 192.0, 0.0, 0.0, 0.0, 0.0, 0.0, 0.0, 0.0, 0.0, 0.0, 1.740938134811591E9, 0.0, 2025-03-02 19:55:34.811
82.0, 22299.731945959564, 12837.411503483238, 0.0, 0.0, 0.0, 0.0, 0.0, 15941.219442036087, 0.03, -0.022, 0.99, 192.0, 0.0, 0.0, 0.0, 0.0, 0.0, 0.0, 0.0, 0.0, 0.0, 1.740938134811648E9, 0.0, 2025-03-02 19:55:34.811
83.0, 22328.073957928893, 13064.77344808262, 0.0, 0.0, 0.0, 0.0, 0.0, 16826.81790909981, 0.03, -0.022, 0.99, 192.0, 0.0, 0.0, 0.0, 0.0, 0.0, 0.0, 0.0, 0.0, 0.0, 1.740938134811695E9, 0.0, 2025-03-02 19:55:34.811
84.0, 22127.064720042315, 12966.448124223725, 0.0, 0.0, 0.0, 0.0, 0.0, 19282.715831126672, 0.03, -0.022, 0.99, 192.0, 0.0, 0.0, 0.0, 0.0, 0.0, 0.0, 0.0, 0.0, 0.0, 1.740938134811738E9, 0.0, 2025-03-02 19:55:34.811
85.0, 22079.88018749716, 12784.750793546533, 0.0, 0.0, 0.0, 0.0, 0.0, 19036.846642118293, 0.03, -0.022, 0.99, 192.0, 0.0, 0.0, 0.0, 0.0, 0.0, 0.0, 0.0, 0.0, 0.0, 1.740938134811847E9, 0.0, 2025-03-02 19:55:34.811
86.0, 22105.115306987205, 12754.28536585395, 0.0, 0.0, 0.0, 0.0, 0.0, 18537.7768919202, 0.032, -0.018000000000000002, 0.986, 192.0, 1.0, 0.0, 255.0, 112.0, 30.0, 208.0, 0.0, 0.0, 0.0, 1.740938134811926E9, 0.0, 2025-03-02 19:55:34.811
87.0, 22278.87776838276, 12807.661331613224, 0.0, 0.0, 0.0, 0.0, 0.0, 15898.371147915263, 0.032, -0.018000000000000002, 0.986, 192.0, 0.0, 0.0, 0.0, 0.0, 0.0, 0.0, 0.0, 0.0, 0.0, 1.740938134811986E9, 0.0, 2025-03-02 19:55:34.811
88.0, 22318.75328049103, 13047.6296600854, 0.0, 0.0, 0.0, 0.0, 0.0, 16748.609155250688, 0.032, -0.018000000000000002, 0.986, 192.0, 0.0, 0.0, 0.0, 0.0, 0.0, 0.0, 0.0, 0.0, 0.0, 1.740938134812043E9, 0.0, 2025-03-02 19:55:34.812
89.0, 22126.014188052915, 12954.042906051029, 0.0, 0.0, 0.0, 0.0, 0.0, 19261.258156449578, 0.032, -0.018000000000000002, 0.986, 192.0, 0.0, 0.0, 0.0, 0.0, 0.0, 0.0, 0.0, 0.0, 0.0, 1.740938134812093E9, 0.0, 2025-03-02 19:55:34.812
90.0, 22061.685867510543, 12772.949072474132, 0.0, 0.0, 0.0, 0.0, 0.0, 19024.508479178963, 0.032, -0.018000000000000002, 0.986, 192.0, 0.0, 0.0, 0.0, 0.0, 0.0, 0.0, 0.0, 0.0, 0.0, 1.740938134812137E9, 0.0, 2025-03-02 19:55:34.812
91.0, 22085.401068377625, 12755.179435632162, 0.0, 0.0, 0.0, 0.0, 0.0, 18555.278307828703, 0.032, -0.018000000000000002, 0.986, 192.0, 0.0, 0.0, 0.0, 0.0, 0.0, 0.0, 0.0, 0.0, 0.0, 1.740938134871582E9, 0.0, 2025-03-02 19:55:34.871
92.0, 22276.061448581393, 12808.644808369258, 0.0, 0.0, 0.0, 0.0, 0.0, 15897.72294732606, 0.032, -0.018000000000000002, 0.986, 192.0, 0.0, 0.0, 0.0, 0.0, 0.0, 0.0, 0.0, 0.0, 0.0, 1.740938134871642E9, 0.0, 2025-03-02 19:55:34.871
93.0, 22327.470460828597, 13056.391543911881, 0.0, 0.0, 0.0, 0.0, 0.0, 16660.520930352322, 0.032, -0.018000000000000002, 0.986, 192.0, 0.0, 0.0, 0.0, 0.0, 0.0, 0.0, 0.0, 0.0, 0.0, 1.740938134871685E9, 0.0, 2025-03-02 19:55:34.871
94.0, 22127.511754931424, 12969.912644614298, 0.0, 0.0, 0.0, 0.0, 0.0, 19208.977426168614, 0.032, -0.018000000000000002, 0.986, 192.0, 0.0, 0.0, 0.0, 0.0, 0.0, 0.0, 0.0, 0.0, 0.0, 1.740938134871726E9, 0.0, 2025-03-02 19:55:34.871
95.0, 22067.452617580013, 12777.24060740955, 0.0, 0.0, 0.0, 0.0, 0.0, 19014.517249407443, 0.032, -0.018000000000000002, 0.986, 192.0, 0.0, 0.0, 0.0, 0.0, 0.0, 0.0, 0.0, 0.0, 0.0, 1.740938134871766E9, 0.0, 2025-03-02 19:55:34.871
96.0, 22098.745059817444, 12759.828598478867, 0.0, 0.0, 0.0, 0.0, 0.0, 18547.946935647364, 0.032, -0.024, 0.988, 192.0, 1.0, 0.0, 255.0, 64.0, 30.0, 224.0, 0.0, 0.0, 0.0, 1.740938134871807E9, 0.0, 2025-03-02 19:55:34.871
97.0, 22285.89621614173, 12815.104462516842, 0.0, 0.0, 0.0, 0.0, 0.0, 15862.697763764592, 0.032, -0.024, 0.988, 192.0, 0.0, 0.0, 0.0, 0.0, 0.0, 0.0, 0.0, 0.0, 0.0, 1.740938134871849E9, 0.0, 2025-03-02 19:55:34.871
98.0, 22333.99717020955, 13059.140808479884, 0.0, 0.0, 0.0, 0.0, 0.0, 16577.79712412323, 0.032, -0.024, 0.988, 192.0, 0.0, 0.0, 0.0, 0.0, 0.0, 0.0, 0.0, 0.0, 0.0, 1.74093813487189E9, 0.0, 2025-03-02 19:55:34.871
99.0, 22136.63126666919, 12978.182790062761, 0.0, 0.0, 0.0, 0.0, 0.0, 19173.41580074022, 0.032, -0.024, 0.988, 192.0, 0.0, 0.0, 0.0, 0.0, 0.0, 0.0, 0.0, 0.0, 0.0, 1.74093813487193E9, 0.0, 2025-03-02 19:55:34.871
100.0, 22084.350536388225, 12797.223066952594, 0.0, 0.0, 0.0, 0.0, 0.0, 18968.003269195946, 0.032, -0.024, 0.988, 192.0, 0.0, 0.0, 0.0, 0.0, 0.0, 0.0, 0.0, 0.0, 0.0, 1.740938134871972E9, 0.0, 2025-03-02 19:55:34.871
101.0, 22112.647844868643, 12765.505941570515, 0.0, 0.0, 0.0, 0.0, 0.0, 18508.56316191711, 0.032, -0.024, 0.988, 192.0, 0.0, 0.0, 0.0, 0.0, 0.0, 0.0, 0.0, 0.0, 0.0, 1.740938134872023E9, 0.0, 2025-03-02 19:55:34.872
102.0, 22301.989472149548, 12818.591334651868, 0.0, 0.0, 0.0, 0.0, 0.0, 15781.35976569173, 0.032, -0.024, 0.988, 192.0, 0.0, 0.0, 0.0, 0.0, 0.0, 0.0, 0.0, 0.0, 0.0, 1.740938134872117E9, 0.0, 2025-03-02 19:55:34.872
103.0, 22353.3761326523, 13074.295291220582, 0.0, 0.0, 0.0, 0.0, 0.0, 16445.67596264791, 0.032, -0.024, 0.988, 192.0, 0.0, 0.0, 0.0, 0.0, 0.0, 0.0, 0.0, 0.0, 0.0, 1.740938134872159E9, 0.0, 2025-03-02 19:55:34.872
104.0, 22155.563194222832, 12991.973816391686, 0.0, 0.0, 0.0, 0.0, 0.0, 19107.813430763894, 0.032, -0.024, 0.988, 192.0, 0.0, 0.0, 0.0, 0.0, 0.0, 0.0, 0.0, 0.0, 0.0, 1.7409381348722E9, 0.0, 2025-03-02 19:55:34.872
105.0, 22096.08520222726, 12800.709939087623, 0.0, 0.0, 0.0, 0.0, 0.0, 18939.54949850434, 0.028, -0.024, 0.994, 192.0, 0.0, 224.0, 255.0, 64.0, 31.0, 16.0, 0.0, 0.0, 0.0, 1.740938134872238E9, 0.0, 2025-03-02 19:55:34.872
106.0, 22123.108461273725, 12776.994738220543, 0.0, 0.0, 0.0, 0.0, 0.0, 18481.629309848468, 0.028, -0.024, 0.994, 192.0, 0.0, 0.0, 0.0, 0.0, 0.0, 0.0, 0.0, 0.0, 0.0, 1.740938134931024E9, 0.0, 2025-03-02 19:55:34.931
107.0, 22305.722213473586, 12828.49315744557, 0.0, 0.0, 0.0, 0.0, 0.0, 15775.50360864444, 0.028, -0.024, 0.994, 192.0, 0.0, 0.0, 0.0, 0.0, 0.0, 0.0, 0.0, 0.0, 0.0, 1.740938134931087E9, 0.0, 2025-03-02 19:55:34.931
108.0, 22367.323621192412, 13070.428439429814, 0.0, 0.0, 0.0, 0.0, 0.0, 16452.292079006682, 0.028, -0.024, 0.994, 192.0, 0.0, 0.0, 0.0, 0.0, 0.0, 0.0, 0.0, 0.0, 0.0, 1.740938134931131E9, 0.0, 2025-03-02 19:55:34.931
109.0, 22159.698266947064, 12990.006862879618, 0.0, 0.0, 0.0, 0.0, 0.0, 19176.857969386336, 0.028, -0.024, 0.994, 192.0, 0.0, 0.0, 0.0, 0.0, 0.0, 0.0, 0.0, 0.0, 0.0, 1.740938134931175E9, 0.0, 2025-03-02 19:55:34.931
110.0, 22090.43021088007, 12799.033558253475, 0.0, 0.0, 0.0, 0.0, 0.0, 19014.293731962887, 0.028, -0.024, 0.994, 192.0, 0.0, 0.0, 0.0, 0.0, 0.0, 0.0, 0.0, 0.0, 0.0, 1.740938134931238E9, 0.0, 2025-03-02 19:55:34.931
111.0, 22117.47582167099, 12766.62352879328, 0.0, 0.0, 0.0, 0.0, 0.0, 18548.215156580827, 0.028, -0.024, 0.994, 192.0, 0.0, 0.0, 0.0, 0.0, 0.0, 0.0, 0.0, 0.0, 0.0, 1.740938134931296E9, 0.0, 2025-03-02 19:55:34.931
112.0, 22308.02444315248, 12819.798328852456, 0.0, 0.0, 0.0, 0.0, 0.0, 15829.527774992917, 0.028, -0.024, 0.994, 192.0, 0.0, 0.0, 0.0, 0.0, 0.0, 0.0, 0.0, 0.0, 0.0, 1.74093813493132E9, 0.0, 2025-03-02 19:55:34.931
113.0, 22364.216728713123, 13083.101878535972, 0.0, 0.0, 0.0, 0.0, 0.0, 16440.7809306122, 0.028, -0.024, 0.994, 192.0, 0.0, 0.0, 0.0, 0.0, 0.0, 0.0, 0.0, 0.0, 0.0, 1.740938134931344E9, 0.0, 2025-03-02 19:55:34.931
114.0, 22160.65939195864, 13006.323636331992, 0.0, 0.0, 0.0, 0.0, 0.0, 19181.775353166504, 0.028, -0.024, 0.994, 192.0, 0.0, 0.0, 0.0, 0.0, 0.0, 0.0, 0.0, 0.0, 0.0, 1.740938134931367E9, 0.0, 2025-03-02 19:55:34.931
115.0, 22102.90248428613, 12814.746834605556, 0.0, 0.0, 0.0, 0.0, 0.0, 19018.92054306514, 0.03, -0.018000000000000002, 0.992, 192.0, 0.0, 240.0, 255.0, 112.0, 31.0, 0.0, 0.0, 0.0, 0.0, 1.740938134931391E9, 0.0, 2025-03-02 19:55:34.931
116.0, 22130.171612521604, 12785.890732513755, 0.0, 0.0, 0.0, 0.0, 0.0, 18566.834159712096, 0.03, -0.018000000000000002, 0.992, 192.0, 0.0, 0.0, 0.0, 0.0, 0.0, 0.0, 0.0, 0.0, 0.0, 1.740938134931416E9, 0.0, 2025-03-02 19:55:34.931
117.0, 22314.104117644325, 12826.280334744495, 0.0, 0.0, 0.0, 0.0, 0.0, 15811.08758581729, 0.03, -0.018000000000000002, 0.992, 192.0, 0.0, 0.0, 0.0, 0.0, 0.0, 0.0, 0.0, 0.0, 0.0, 1.740938134931439E9, 0.0, 2025-03-02 19:55:34.931
118.0, 22366.586013625387, 13078.296253478082, 0.0, 0.0, 0.0, 0.0, 0.0, 16377.659604270411, 0.03, -0.018000000000000002, 0.992, 192.0, 0.0, 0.0, 0.0, 0.0, 0.0, 0.0, 0.0, 0.0, 0.0, 1.740938134931463E9, 0.0, 2025-03-02 19:55:34.931
119.0, 22173.57870025381, 13009.341121833459, 0.0, 0.0, 0.0, 0.0, 0.0, 19184.256396801044, 0.03, -0.018000000000000002, 0.992, 192.0, 0.0, 0.0, 0.0, 0.0, 0.0, 0.0, 0.0, 0.0, 0.0, 1.740938134931551E9, 0.0, 2025-03-02 19:55:34.931
120.0, 22110.435022167567, 12819.86538408582, 0.0, 0.0, 0.0, 0.0, 0.0, 19048.49190097951, 0.03, -0.018000000000000002, 0.992, 192.0, 0.0, 0.0, 0.0, 0.0, 0.0, 0.0, 0.0, 0.0, 0.0, 1.740938134931575E9, 0.0, 2025-03-02 19:55:34.931
121.0, 22143.00151383895, 12799.480593142582, 0.0, 0.0, 0.0, 0.0, 0.0, 18600.518238606244, 0.03, -0.018000000000000002, 0.992, 192.0, 0.0, 0.0, 0.0, 0.0, 0.0, 0.0, 0.0, 0.0, 0.0, 1.740938134990726E9, 0.0, 2025-03-02 19:55:34.990
122.0, 22315.869905456293, 12820.670046886213, 0.0, 0.0, 0.0, 0.0, 0.0, 15846.962135668056, 0.03, -0.018000000000000002, 0.992, 192.0, 0.0, 0.0, 0.0, 0.0, 0.0, 0.0, 0.0, 0.0, 0.0, 1.740938134990772E9, 0.0, 2025-03-02 19:55:34.990
123.0, 22365.066095002425, 13068.327375451014, 0.0, 0.0, 0.0, 0.0, 0.0, 16384.409831095916, 0.03, -0.018000000000000002, 0.992, 192.0, 0.0, 0.0, 0.0, 0.0, 0.0, 0.0, 0.0, 0.0, 0.0, 1.740938134990798E9, 0.0, 2025-03-02 19:55:34.990
124.0, 22171.09765661927, 13003.820240952999, 0.0, 0.0, 0.0, 0.0, 0.0, 19209.826792457916, 0.03, -0.018000000000000002, 0.992, 192.0, 0.0, 0.0, 0.0, 0.0, 0.0, 0.0, 0.0, 0.0, 0.0, 1.740938134990822E9, 0.0, 2025-03-02 19:55:34.990
125.0, 22106.81403956581, 12807.191944979662, 0.0, 0.0, 0.0, 0.0, 0.0, 19077.34800307131, 0.034, -0.016, 0.988, 192.0, 1.0, 16.0, 255.0, 128.0, 30.0, 224.0, 0.0, 0.0, 0.0, 1.740938134990846E9, 0.0, 2025-03-02 19:55:34.990
126.0, 22130.66335089962, 12782.04623246744, 0.0, 0.0, 0.0, 0.0, 0.0, 18635.78929135672, 0.034, -0.016, 0.988, 192.0, 0.0, 0.0, 0.0, 0.0, 0.0, 0.0, 0.0, 0.0, 0.0, 1.740938134990871E9, 0.0, 2025-03-02 19:55:34.990
127.0, 22314.37233857779, 12823.218145754117, 0.0, 0.0, 0.0, 0.0, 0.0, 15891.777383300947, 0.034, -0.016, 0.988, 192.0, 0.0, 0.0, 0.0, 0.0, 0.0, 0.0, 0.0, 0.0, 0.0, 1.740938134990895E9, 0.0, 2025-03-02 19:55:34.990
128.0, 22380.779371354507, 13093.607198429967, 0.0, 0.0, 0.0, 0.0, 0.0, 16397.37384287999, 0.034, -0.016, 0.988, 192.0, 0.0, 0.0, 0.0, 0.0, 0.0, 0.0, 0.0, 0.0, 0.0, 1.740938134990918E9, 0.0, 2025-03-02 19:55:34.990
129.0, 22187.19091262709, 13032.363418622426, 0.0, 0.0, 0.0, 0.0, 0.0, 19250.61872608885, 0.034, -0.016, 0.988, 192.0, 0.0, 0.0, 0.0, 0.0, 0.0, 0.0, 0.0, 0.0, 0.0, 1.740938134990955E9, 0.0, 2025-03-02 19:55:34.990
130.0, 22116.917028059608, 12821.139433519773, 0.0, 0.0, 0.0, 0.0, 0.0, 19113.40136687772, 0.034, -0.016, 0.988, 192.0, 0.0, 0.0, 0.0, 0.0, 0.0, 0.0, 0.0, 0.0, 0.0, 1.740938134991001E9, 0.0, 2025-03-02 19:55:34.991
131.0, 22142.599182438753, 12805.96259903462, 0.0, 0.0, 0.0, 0.0, 0.0, 18665.18183531545, 0.034, -0.016, 0.988, 192.0, 0.0, 0.0, 0.0, 0.0, 0.0, 0.0, 0.0, 0.0, 0.0, 1.74093813499106E9, 0.0, 2025-03-02 19:55:34.991
132.0, 22318.261542113014, 12841.904204118753, 0.0, 0.0, 0.0, 0.0, 0.0, 15884.66952856416, 0.034, -0.016, 0.988, 192.0, 0.0, 0.0, 0.0, 0.0, 0.0, 0.0, 0.0, 0.0, 0.0, 1.740938134991113E9, 0.0, 2025-03-02 19:55:34.991
133.0, 22391.73172613761, 13093.674253663332, 0.0, 0.0, 0.0, 0.0, 0.0, 16359.04060113914, 0.034, -0.016, 0.988, 192.0, 0.0, 0.0, 0.0, 0.0, 0.0, 0.0, 0.0, 0.0, 0.0, 1.740938134991157E9, 0.0, 2025-03-02 19:55:34.991
134.0, 22195.25989237546, 13032.028142455596, 0.0, 0.0, 0.0, 0.0, 0.0, 19246.327191153432, 0.034, -0.016, 0.988, 192.0, 0.0, 0.0, 0.0, 0.0, 0.0, 0.0, 0.0, 0.0, 0.0, 1.740938134991201E9, 0.0, 2025-03-02 19:55:34.991
135.0, 22112.51373440191, 12824.291029487971, 0.0, 0.0, 0.0, 0.0, 0.0, 19117.469384368585, 0.03, -0.02, 0.992, 192.0, 0.0, 240.0, 255.0, 96.0, 31.0, 0.0, 0.0, 0.0, 0.0, 1.740938134991268E9, 0.0, 2025-03-02 19:55:34.991
136.0, 22135.223106768502, 12792.551552361436, 0.0, 0.0, 0.0, 0.0, 0.0, 18669.830998162153, 0.03, -0.02, 0.992, 192.0, 0.0, 0.0, 0.0, 0.0, 0.0, 0.0, 0.0, 0.0, 0.0, 1.740938135051046E9, 0.0, 2025-03-02 19:55:35.051
137.0, 22325.883486972274, 12834.885756359787, 0.0, 0.0, 0.0, 0.0, 0.0, 15882.0990779518, 0.03, -0.02, 0.992, 192.0, 0.0, 0.0, 0.0, 0.0, 0.0, 0.0, 0.0, 0.0, 0.0, 1.740938135051121E9, 0.0, 2025-03-02 19:55:35.051
138.0, 22398.48195296311, 13108.135832325916, 0.0, 0.0, 0.0, 0.0, 0.0, 16316.013493062675, 0.03, -0.02, 0.992, 192.0, 0.0, 0.0, 0.0, 0.0, 0.0, 0.0, 0.0, 0.0, 0.0, 1.740938135051174E9, 0.0, 2025-03-02 19:55:35.051
139.0, 22211.040223960903, 13057.956166023752, 0.0, 0.0, 0.0, 0.0, 0.0, 19243.019132974045, 0.03, -0.02, 0.992, 192.0, 0.0, 0.0, 0.0, 0.0, 0.0, 0.0, 0.0, 0.0, 0.0, 1.740938135051241E9, 0.0, 2025-03-02 19:55:35.051
140.0, 22143.448548728054, 12847.335678021393, 0.0, 0.0, 0.0, 0.0, 0.0, 19119.97277974758, 0.03, -0.02, 0.992, 192.0, 0.0, 0.0, 0.0, 0.0, 0.0, 0.0, 0.0, 0.0, 0.0, 1.740938135051308E9, 0.0, 2025-03-02 19:55:35.051
141.0, 22163.073380359816, 12819.574811407902, 0.0, 0.0, 0.0, 0.0, 0.0, 18683.84554193563, 0.03, -0.02, 0.992, 192.0, 0.0, 0.0, 0.0, 0.0, 0.0, 0.0, 0.0, 0.0, 0.0, 1.740938135051366E9, 0.0, 2025-03-02 19:55:35.051
142.0, 22341.41794936871, 12847.872119888321, 0.0, 0.0, 0.0, 0.0, 0.0, 15910.619903876772, 0.03, -0.02, 0.992, 192.0, 0.0, 0.0, 0.0, 0.0, 0.0, 0.0, 0.0, 0.0, 0.0, 1.740938135051407E9, 0.0, 2025-03-02 19:55:35.051
143.0, 22421.77247068554, 13119.73638769822, 0.0, 0.0, 0.0, 0.0, 0.0, 16303.876495823444, 0.03, -0.02, 0.992, 192.0, 0.0, 0.0, 0.0, 0.0, 0.0, 0.0, 0.0, 0.0, 0.0, 1.740938135051451E9, 0.0, 2025-03-02 19:55:35.051
144.0, 22222.238447933014, 13063.745267837676, 0.0, 0.0, 0.0, 0.0, 0.0, 19244.829624274924, 0.03, -0.02, 0.992, 192.0, 0.0, 0.0, 0.0, 0.0, 0.0, 0.0, 0.0, 0.0, 0.0, 1.740938135051499E9, 0.0, 2025-03-02 19:55:35.051
145.0, 22137.23476376948, 12838.260869772539, 0.0, 0.0, 0.0, 0.0, 0.0, 19119.190468691646, 0.03, -0.022, 0.994, 192.0, 0.0, 240.0, 255.0, 80.0, 31.0, 16.0, 0.0, 0.0, 0.0, 1.740938135051567E9, 0.0, 2025-03-02 19:55:35.051
146.0, 22140.788691137874, 12796.396052407748, 0.0, 0.0, 0.0, 0.0, 0.0, 18673.407277275, 0.03, -0.022, 0.994, 192.0, 0.0, 0.0, 0.0, 0.0, 0.0, 0.0, 0.0, 0.0, 0.0, 1.740938135051617E9, 0.0, 2025-03-02 19:55:35.051
147.0, 22314.2158763666, 12822.502889931548, 0.0, 0.0, 0.0, 0.0, 0.0, 15888.849304777303, 0.03, -0.022, 0.994, 192.0, 0.0, 0.0, 0.0, 0.0, 0.0, 0.0, 0.0, 0.0, 0.0, 1.740938135051643E9, 0.0, 2025-03-02 19:55:35.051
148.0, 22387.708412135653, 13087.147544282383, 0.0, 0.0, 0.0, 0.0, 0.0, 16248.421817829827, 0.03, -0.022, 0.994, 192.0, 0.0, 0.0, 0.0, 0.0, 0.0, 0.0, 0.0, 0.0, 0.0, 1.740938135051667E9, 0.0, 2025-03-02 19:55:35.051
149.0, 22194.00819468596, 13044.500415861658, 0.0, 0.0, 0.0, 0.0, 0.0, 19230.971542712636, 0.03, -0.022, 0.994, 192.0, 0.0, 0.0, 0.0, 0.0, 0.0, 0.0, 0.0, 0.0, 0.0, 1.74093813505169E9, 0.0, 2025-03-02 19:55:35.051
150.0, 22123.175516507094, 12834.125797048308, 0.0, 0.0, 0.0, 0.0, 0.0, 19145.029085281978, 0.03, -0.022, 0.994, 192.0, 0.0, 0.0, 0.0, 0.0, 0.0, 0.0, 0.0, 0.0, 0.0, 1.740938135051714E9, 0.0, 2025-03-02 19:55:35.051
151.0, 22143.873231872705, 12807.303703701939, 0.0, 0.0, 0.0, 0.0, 0.0, 18708.343053858647, 0.03, -0.022, 0.994, 192.0, 0.0, 0.0, 0.0, 0.0, 0.0, 0.0, 0.0, 0.0, 0.0, 1.740938135111338E9, 0.0, 2025-03-02 19:55:35.111
152.0, 22321.480193314575, 12832.851747614355, 0.0, 0.0, 0.0, 0.0, 0.0, 15914.687921367637, 0.03, -0.022, 0.994, 192.0, 0.0, 0.0, 0.0, 0.0, 0.0, 0.0, 0.0, 0.0, 0.0, 1.740938135111418E9, 0.0, 2025-03-02 19:55:35.111
153.0, 22401.857066375862, 13101.832640389519, 0.0, 0.0, 0.0, 0.0, 0.0, 16228.64052398688, 0.03, -0.022, 0.994, 192.0, 0.0, 0.0, 0.0, 0.0, 0.0, 0.0, 0.0, 0.0, 0.0, 1.740938135111561E9, 0.0, 2025-03-02 19:55:35.111
154.0, 22205.72050878054, 13056.43624740079, 0.0, 0.0, 0.0, 0.0, 0.0, 19225.71888276564, 0.036000000000000004, -0.02, 0.994, 192.0, 1.0, 32.0, 255.0, 96.0, 31.0, 16.0, 0.0, 0.0, 0.0, 1.740938135111606E9, 0.0, 2025-03-02 19:55:35.111
155.0, 22127.914086331617, 12844.742875664579, 0.0, 0.0, 0.0, 0.0, 0.0, 19125.247791439033, 0.036000000000000004, -0.02, 0.994, 192.0, 0.0, 0.0, 0.0, 0.0, 0.0, 0.0, 0.0, 0.0, 0.0, 1.740938135111653E9, 0.0, 2025-03-02 19:55:35.111
156.0, 22151.204604054048, 12813.383378193783, 0.0, 0.0, 0.0, 0.0, 0.0, 18701.07873691067, 0.036000000000000004, -0.02, 0.994, 192.0, 0.0, 0.0, 0.0, 0.0, 0.0, 0.0, 0.0, 0.0, 0.0, 1.740938135111697E9, 0.0, 2025-03-02 19:55:35.111
157.0, 22324.69884451614, 12827.241459756073, 0.0, 0.0, 0.0, 0.0, 0.0, 15921.795776104425, 0.036000000000000004, -0.02, 0.994, 192.0, 0.0, 0.0, 0.0, 0.0, 0.0, 0.0, 0.0, 0.0, 0.0, 1.740938135111741E9, 0.0, 2025-03-02 19:55:35.111
158.0, 22396.090316306392, 13090.232085017215, 0.0, 0.0, 0.0, 0.0, 0.0, 16198.465668972216, 0.036000000000000004, -0.02, 0.994, 192.0, 0.0, 0.0, 0.0, 0.0, 0.0, 0.0, 0.0, 0.0, 0.0, 1.740938135111786E9, 0.0, 2025-03-02 19:55:35.111
159.0, 22188.39790682768, 13046.936756007286, 0.0, 0.0, 0.0, 0.0, 0.0, 19219.66156001825, 0.036000000000000004, -0.02, 0.994, 192.0, 0.0, 0.0, 0.0, 0.0, 0.0, 0.0, 0.0, 0.0, 0.0, 1.740938135111834E9, 0.0, 2025-03-02 19:55:35.111
160.0, 22114.123060002694, 12840.92072736272, 0.0, 0.0, 0.0, 0.0, 0.0, 19156.249660998543, 0.036000000000000004, -0.02, 0.994, 192.0, 0.0, 0.0, 0.0, 0.0, 0.0, 0.0, 0.0, 0.0, 0.0, 1.740938135111881E9, 0.0, 2025-03-02 19:55:35.111
161.0, 22128.942266576563, 12800.575828620891, 0.0, 0.0, 0.0, 0.0, 0.0, 18731.36535064761, 0.036000000000000004, -0.02, 0.994, 192.0, 0.0, 0.0, 0.0, 0.0, 0.0, 0.0, 0.0, 0.0, 0.0, 1.740938135111934E9, 0.0, 2025-03-02 19:55:35.111
162.0, 22299.50842851501, 12822.43583469818, 0.0, 0.0, 0.0, 0.0, 0.0, 15951.501244485527, 0.036000000000000004, -0.02, 0.994, 192.0, 0.0, 0.0, 0.0, 0.0, 0.0, 0.0, 0.0, 0.0, 0.0, 1.740938135112012E9, 0.0, 2025-03-02 19:55:35.112
163.0, 22385.853217345863, 13092.087279807005, 0.0, 0.0, 0.0, 0.0, 0.0, 16186.48513394417, 0.036000000000000004, -0.02, 0.994, 192.0, 0.0, 0.0, 0.0, 0.0, 0.0, 0.0, 0.0, 0.0, 0.0, 1.740938135112107E9, 0.0, 2025-03-02 19:55:35.112
164.0, 22191.68361326261, 13052.05530548755, 0.0, 0.0, 0.0, 0.0, 0.0, 19218.454565817665, 0.032, -0.024, 0.992, 192.0, 1.0, 0.0, 255.0, 64.0, 31.0, 0.0, 0.0, 0.0, 0.0, 1.740938135112175E9, 0.0, 2025-03-02 19:55:35.112
165.0, 22116.29117921486, 12843.044143085974, 0.0, 0.0, 0.0, 0.0, 0.0, 19140.35757069082, 0.032, -0.024, 0.992, 192.0, 0.0, 0.0, 0.0, 0.0, 0.0, 0.0, 0.0, 0.0, 0.0, 1.740938135112276E9, 0.0, 2025-03-02 19:55:35.112
166.0, 22141.14631904916, 12806.610799623824, 0.0, 0.0, 0.0, 0.0, 0.0, 18729.33134190218, 0.032, -0.024, 0.992, 192.0, 0.0, 0.0, 0.0, 0.0, 0.0, 0.0, 0.0, 0.0, 0.0, 1.740938135171625E9, 0.0, 2025-03-02 19:55:35.171
167.0, 22308.918512930693, 12806.052006012442, 0.0, 0.0, 0.0, 0.0, 0.0, 15957.9161951442, 0.032, -0.024, 0.992, 192.0, 0.0, 0.0, 0.0, 0.0, 0.0, 0.0, 0.0, 0.0, 0.0, 1.740938135171669E9, 0.0, 2025-03-02 19:55:35.171
168.0, 22381.539330665986, 13070.11551500744, 0.0, 0.0, 0.0, 0.0, 0.0, 16140.57465083297, 0.032, -0.024, 0.992, 192.0, 0.0, 0.0, 0.0, 0.0, 0.0, 0.0, 0.0, 0.0, 0.0, 1.740938135171693E9, 0.0, 2025-03-02 19:55:35.171
169.0, 22183.52522653642, 13037.392561124869, 0.0, 0.0, 0.0, 0.0, 0.0, 19209.759737224547, 0.032, -0.024, 0.992, 192.0, 0.0, 0.0, 0.0, 0.0, 0.0, 0.0, 0.0, 0.0, 0.0, 1.740938135171716E9, 0.0, 2025-03-02 19:55:35.171
170.0, 22104.55651337582, 12812.601067137846, 0.0, 0.0, 0.0, 0.0, 0.0, 19147.688942872162, 0.032, -0.024, 0.992, 192.0, 0.0, 0.0, 0.0, 0.0, 0.0, 0.0, 0.0, 0.0, 0.0, 1.740938135171783E9, 0.0, 2025-03-02 19:55:35.171
171.0, 22123.220219996005, 12785.443697624649, 0.0, 0.0, 0.0, 0.0, 0.0, 18730.89596401405, 0.032, -0.024, 0.992, 192.0, 0.0, 0.0, 0.0, 0.0, 0.0, 0.0, 0.0, 0.0, 0.0, 1.740938135171806E9, 0.0, 2025-03-02 19:55:35.171
172.0, 22296.200370335624, 12805.180287978685, 0.0, 0.0, 0.0, 0.0, 0.0, 15967.818017937901, 0.032, -0.024, 0.992, 192.0, 0.0, 0.0, 0.0, 0.0, 0.0, 0.0, 0.0, 0.0, 0.0, 1.740938135171828E9, 0.0, 2025-03-02 19:55:35.171
173.0, 22400.270092519535, 13083.34774772498, 0.0, 0.0, 0.0, 0.0, 0.0, 16136.19370891973, 0.032, -0.024, 0.992, 192.0, 0.0, 0.0, 0.0, 0.0, 0.0, 0.0, 0.0, 0.0, 0.0, 1.74093813517187E9, 0.0, 2025-03-02 19:55:35.171
174.0, 22201.3395668673, 13054.178721210805, 0.0, 0.0, 0.0, 0.0, 0.0, 19226.09886242138, 0.03, -0.026000000000000002, 0.992, 192.0, 0.0, 240.0, 255.0, 48.0, 31.0, 0.0, 0.0, 0.0, 0.0, 1.740938135171901E9, 0.0, 2025-03-02 19:55:35.171
175.0, 22109.608007622723, 12830.817738868922, 0.0, 0.0, 0.0, 0.0, 0.0, 19166.419704725708, 0.03, -0.026000000000000002, 0.992, 192.0, 0.0, 0.0, 0.0, 0.0, 0.0, 0.0, 0.0, 0.0, 0.0, 1.740938135171925E9, 0.0, 2025-03-02 19:55:35.171
176.0, 22130.126909032693, 12797.535991374969, 0.0, 0.0, 0.0, 0.0, 0.0, 18750.18551947898, 0.03, -0.026000000000000002, 0.992, 192.0, 0.0, 0.0, 0.0, 0.0, 0.0, 0.0, 0.0, 0.0, 0.0, 1.740938135171947E9, 0.0, 2025-03-02 19:55:35.171
177.0, 22301.22951283807, 12806.655503112735, 0.0, 0.0, 0.0, 0.0, 0.0, 15988.515733303517, 0.03, -0.026000000000000002, 0.992, 192.0, 0.0, 0.0, 0.0, 0.0, 0.0, 0.0, 0.0, 0.0, 0.0, 1.74093813517197E9, 0.0, 2025-03-02 19:55:35.171
178.0, 22386.81434235744, 13082.25251224667, 0.0, 0.0, 0.0, 0.0, 0.0, 16093.524228754548, 0.03, -0.026000000000000002, 0.992, 192.0, 0.0, 0.0, 0.0, 0.0, 0.0, 0.0, 0.0, 0.0, 0.0, 1.740938135171992E9, 0.0, 2025-03-02 19:55:35.171
179.0, 22196.779810998418, 13059.319622435525, 0.0, 0.0, 0.0, 0.0, 0.0, 19198.98619639709, 0.03, -0.026000000000000002, 0.992, 192.0, 0.0, 0.0, 0.0, 0.0, 0.0, 0.0, 0.0, 0.0, 0.0, 1.740938135172014E9, 0.0, 2025-03-02 19:55:35.172
180.0, 22116.872324570697, 12836.87506161631, 0.0, 0.0, 0.0, 0.0, 0.0, 19164.4751029581, 0.03, -0.026000000000000002, 0.992, 192.0, 0.0, 0.0, 0.0, 0.0, 0.0, 0.0, 0.0, 0.0, 0.0, 1.740938135172036E9, 0.0, 2025-03-02 19:55:35.172
181.0, 22135.75954863543, 12798.184191964174, 0.0, 0.0, 0.0, 0.0, 0.0, 18759.841473083674, 0.03, -0.026000000000000002, 0.992, 192.0, 0.0, 0.0, 0.0, 0.0, 0.0, 0.0, 0.0, 0.0, 0.0, 1.740938135231228E9, 0.0, 2025-03-02 19:55:35.231
182.0, 22306.392765807246, 12803.503907144537, 0.0, 0.0, 0.0, 0.0, 0.0, 15999.892771231267, 0.03, -0.026000000000000002, 0.992, 192.0, 0.0, 0.0, 0.0, 0.0, 0.0, 0.0, 0.0, 0.0, 0.0, 1.740938135231306E9, 0.0, 2025-03-02 19:55:35.231
183.0, 22393.452810460665, 13079.793820356586, 0.0, 0.0, 0.0, 0.0, 0.0, 16078.302690780485, 0.03, -0.026000000000000002, 0.992, 192.0, 0.0, 0.0, 0.0, 0.0, 0.0, 0.0, 0.0, 0.0, 0.0, 1.740938135231351E9, 0.0, 2025-03-02 19:55:35.231
184.0, 22194.701098764075, 13058.157331723849, 0.0, 0.0, 0.0, 0.0, 0.0, 19216.308798349954, 0.028, -0.022, 0.99, 192.0, 0.0, 224.0, 255.0, 80.0, 30.0, 240.0, 0.0, 0.0, 0.0, 1.740938135231395E9, 0.0, 2025-03-02 19:55:35.231
185.0, 22111.75377509043, 12824.8274713549, 0.0, 0.0, 0.0, 0.0, 0.0, 19176.679155430695, 0.028, -0.022, 0.99, 192.0, 0.0, 0.0, 0.0, 0.0, 0.0, 0.0, 0.0, 0.0, 0.0, 1.74093813523144E9, 0.0, 2025-03-02 19:55:35.231
186.0, 22125.053063041338, 12785.510752858014, 0.0, 0.0, 0.0, 0.0, 0.0, 18742.742388575363, 0.028, -0.022, 0.99, 192.0, 0.0, 0.0, 0.0, 0.0, 0.0, 0.0, 0.0, 0.0, 0.0, 1.740938135231488E9, 0.0, 2025-03-02 19:55:35.231
187.0, 22295.93214940216, 12798.072433241896, 0.0, 0.0, 0.0, 0.0, 0.0, 16001.859724743335, 0.028, -0.022, 0.99, 192.0, 0.0, 0.0, 0.0, 0.0, 0.0, 0.0, 0.0, 0.0, 0.0, 1.740938135231591E9, 0.0, 2025-03-02 19:55:35.231
188.0, 22396.649109917773, 13072.30598596406, 0.0, 0.0, 0.0, 0.0, 0.0, 16057.783789370513, 0.028, -0.022, 0.99, 192.0, 0.0, 0.0, 0.0, 0.0, 0.0, 0.0, 0.0, 0.0, 0.0, 1.740938135231615E9, 0.0, 2025-03-02 19:55:35.231
189.0, 22206.5922268143, 13063.164122481838, 0.0, 0.0, 0.0, 0.0, 0.0, 19217.1358128948, 0.028, -0.022, 0.99, 192.0, 0.0, 0.0, 0.0, 0.0, 0.0, 0.0, 0.0, 0.0, 0.0, 1.740938135231638E9, 0.0, 2025-03-02 19:55:35.231
190.0, 22121.074452528293, 12826.101520788852, 0.0, 0.0, 0.0, 0.0, 0.0, 19191.833638171393, 0.028, -0.022, 0.99, 192.0, 0.0, 0.0, 0.0, 0.0, 0.0, 0.0, 0.0, 0.0, 0.0, 1.740938135231662E9, 0.0, 2025-03-02 19:55:35.231
191.0, 22133.792595123363, 12785.33193890237, 0.0, 0.0, 0.0, 0.0, 0.0, 18777.00761282535, 0.028, -0.022, 0.99, 192.0, 0.0, 0.0, 0.0, 0.0, 0.0, 0.0, 0.0, 0.0, 0.0, 1.740938135231685E9, 0.0, 2025-03-02 19:55:35.231
192.0, 22303.75525996152, 12794.764375062512, 0.0, 0.0, 0.0, 0.0, 0.0, 16033.88977454779, 0.028, -0.022, 0.99, 192.0, 0.0, 0.0, 0.0, 0.0, 0.0, 0.0, 0.0, 0.0, 0.0, 1.740938135231709E9, 0.0, 2025-03-02 19:55:35.231
193.0, 22394.123362794326, 13063.857026559954, 0.0, 0.0, 0.0, 0.0, 0.0, 16030.134681479298, 0.032, -0.02, 0.988, 192.0, 1.0, 0.0, 255.0, 96.0, 30.0, 224.0, 0.0, 0.0, 0.0, 1.740938135231732E9, 0.0, 2025-03-02 19:55:35.231
194.0, 22203.68650003511, 13061.890073047885, 0.0, 0.0, 0.0, 0.0, 0.0, 19195.09699286187, 0.032, -0.02, 0.988, 192.0, 0.0, 0.0, 0.0, 0.0, 0.0, 0.0, 0.0, 0.0, 0.0, 1.740938135231757E9, 0.0, 2025-03-02 19:55:35.231
195.0, 22110.65853961212, 12822.234668998084, 0.0, 0.0, 0.0, 0.0, 0.0, 19188.391469525275, 0.032, -0.02, 0.988, 192.0, 0.0, 0.0, 0.0, 0.0, 0.0, 0.0, 0.0, 0.0, 0.0, 1.740938135231781E9, 0.0, 2025-03-02 19:55:35.231
196.0, 22132.026807311395, 12790.718709316101, 0.0, 0.0, 0.0, 0.0, 0.0, 18781.567368694232, 0.032, -0.02, 0.988, 192.0, 0.0, 0.0, 0.0, 0.0, 0.0, 0.0, 0.0, 0.0, 0.0, 1.740938135291425E9, 0.0, 2025-03-02 19:55:35.291
197.0, 22304.78344020646, 12799.078261742385, 0.0, 0.0, 0.0, 0.0, 0.0, 16050.251251489075, 0.032, -0.02, 0.988, 192.0, 0.0, 0.0, 0.0, 0.0, 0.0, 0.0, 0.0, 0.0, 0.0, 1.740938135291467E9, 0.0, 2025-03-02 19:55:35.291
198.0, 22394.302176749967, 13073.267110975637, 0.0, 0.0, 0.0, 0.0, 0.0, 16013.415576626729, 0.032, -0.02, 0.988, 192.0, 0.0, 0.0, 0.0, 0.0, 0.0, 0.0, 0.0, 0.0, 0.0, 1.740938135291491E9, 0.0, 2025-03-02 19:55:35.291
199.0, 22204.580569813323, 13068.461485917745, 0.0, 0.0, 0.0, 0.0, 0.0, 19204.70824297765, 0.032, -0.02, 0.988, 192.0, 0.0, 0.0, 0.0, 0.0, 0.0, 0.0, 0.0, 0.0, 0.0, 1.740938135291513E9, 0.0, 2025-03-02 19:55:35.291
200.0, 22118.3698914492, 12825.140395777273, 0.0, 0.0, 0.0, 0.0, 0.0, 19201.109612120345, 0.032, -0.02, 0.988, 192.0, 0.0, 0.0, 0.0, 0.0, 0.0, 0.0, 0.0, 0.0, 0.0, 1.740938135291534E9, 0.0, 2025-03-02 19:55:35.291
201.0, 22140.52047020441, 12788.617645337301, 0.0, 0.0, 0.0, 0.0, 0.0, 18790.664528687543, 0.032, -0.02, 0.988, 192.0, 0.0, 0.0, 0.0, 0.0, 0.0, 0.0, 0.0, 0.0, 0.0, 1.740938135291555E9, 0.0, 2025-03-02 19:55:35.291
202.0, 22305.006957651014, 12795.233761696072, 0.0, 0.0, 0.0, 0.0, 0.0, 16081.253121048585, 0.032, -0.02, 0.988, 192.0, 0.0, 0.0, 0.0, 0.0, 0.0, 0.0, 0.0, 0.0, 0.0, 1.740938135291576E9, 0.0, 2025-03-02 19:55:35.291
203.0, 22405.589807699896, 13071.322509208025, 0.0, 0.0, 0.0, 0.0, 0.0, 16000.742137520569, 0.032, -0.022, 0.994, 192.0, 1.0, 0.0, 255.0, 80.0, 31.0, 16.0, 0.0, 0.0, 0.0, 1.740938135291597E9, 0.0, 2025-03-02 19:55:35.291
204.0, 22214.795317029395, 13065.91338704984, 0.0, 0.0, 0.0, 0.0, 0.0, 19208.999777913068, 0.032, -0.022, 0.994, 192.0, 0.0, 0.0, 0.0, 0.0, 0.0, 0.0, 0.0, 0.0, 0.0, 1.740938135291665E9, 0.0, 2025-03-02 19:55:35.291
205.0, 22125.835374097274, 12818.859555585332, 0.0, 0.0, 0.0, 0.0, 0.0, 19217.739309995093, 0.032, -0.022, 0.994, 192.0, 0.0, 0.0, 0.0, 0.0, 0.0, 0.0, 0.0, 0.0, 0.0, 1.740938135291687E9, 0.0, 2025-03-02 19:55:35.291
206.0, 22143.85088012825, 12781.755659789522, 0.0, 0.0, 0.0, 0.0, 0.0, 18804.276741060825, 0.032, -0.022, 0.994, 192.0, 0.0, 0.0, 0.0, 0.0, 0.0, 0.0, 0.0, 0.0, 0.0, 1.740938135291708E9, 0.0, 2025-03-02 19:55:35.291
207.0, 22311.488963543055, 12793.780898306477, 0.0, 0.0, 0.0, 0.0, 0.0, 16083.75651642758, 0.032, -0.022, 0.994, 192.0, 0.0, 0.0, 0.0, 0.0, 0.0, 0.0, 0.0, 0.0, 0.0, 1.740938135291729E9, 0.0, 2025-03-02 19:55:35.291
208.0, 22416.832735160915, 13071.993061541685, 0.0, 0.0, 0.0, 0.0, 0.0, 15976.78106746448, 0.032, -0.022, 0.994, 192.0, 0.0, 0.0, 0.0, 0.0, 0.0, 0.0, 0.0, 0.0, 0.0, 1.74093813529175E9, 0.0, 2025-03-02 19:55:35.291
209.0, 22219.26566592046, 13075.725802865722, 0.0, 0.0, 0.0, 0.0, 0.0, 19221.51675480804, 0.032, -0.022, 0.994, 192.0, 0.0, 0.0, 0.0, 0.0, 0.0, 0.0, 0.0, 0.0, 0.0, 1.740938135291771E9, 0.0, 2025-03-02 19:55:35.291
210.0, 22127.355292720236, 12845.189910553683, 0.0, 0.0, 0.0, 0.0, 0.0, 19232.692627035693, 0.032, -0.022, 0.994, 192.0, 0.0, 0.0, 0.0, 0.0, 0.0, 0.0, 0.0, 0.0, 0.0, 1.740938135291792E9, 0.0, 2025-03-02 19:55:35.291
211.0, 22150.33288602029, 12799.078261742385, 0.0, 0.0, 0.0, 0.0, 0.0, 18812.323369064736, 0.032, -0.022, 0.994, 192.0, 0.0, 0.0, 0.0, 0.0, 0.0, 0.0, 0.0, 0.0, 0.0, 1.740938135351665E9, 0.0, 2025-03-02 19:55:35.351
212.0, 22306.102193129325, 12789.24349418205, 0.0, 0.0, 0.0, 0.0, 0.0, 16086.304615295485, 0.032, -0.022, 0.994, 192.0, 0.0, 0.0, 0.0, 0.0, 0.0, 0.0, 0.0, 0.0, 0.0, 1.740938135351745E9, 0.0, 2025-03-02 19:55:35.351
213.0, 22412.988235114604, 13068.193264984282, 0.0, 0.0, 0.0, 0.0, 0.0, 15929.954162830612, 0.03, -0.02, 0.996, 192.0, 0.0, 240.0, 255.0, 96.0, 31.0, 32.0, 0.0, 0.0, 0.0, 1.740938135351787E9, 0.0, 2025-03-02 19:55:35.351
214.0, 22228.094604980302, 13087.795744871586, 0.0, 0.0, 0.0, 0.0, 0.0, 19203.300083076963, 0.03, -0.02, 0.996, 192.0, 0.0, 0.0, 0.0, 0.0, 0.0, 0.0, 0.0, 0.0, 0.0, 1.74093813535183E9, 0.0, 2025-03-02 19:55:35.351
215.0, 22132.205621267036, 12853.281242046505, 0.0, 0.0, 0.0, 0.0, 0.0, 19241.208641673165, 0.03, -0.02, 0.996, 192.0, 0.0, 0.0, 0.0, 0.0, 0.0, 0.0, 0.0, 0.0, 0.0, 1.740938135351861E9, 0.0, 2025-03-02 19:55:35.351
216.0, 22134.552554434846, 12795.949017518642, 0.0, 0.0, 0.0, 0.0, 0.0, 18808.81414518525, 0.03, -0.02, 0.996, 192.0, 0.0, 0.0, 0.0, 0.0, 0.0, 0.0, 0.0, 0.0, 0.0, 1.740938135351882E9, 0.0, 2025-03-02 19:55:35.351
217.0, 22295.2615970685, 12792.14922096124, 0.0, 0.0, 0.0, 0.0, 0.0, 16092.808972931978, 0.03, -0.02, 0.996, 192.0, 0.0, 0.0, 0.0, 0.0, 0.0, 0.0, 0.0, 0.0, 0.0, 1.740938135351903E9, 0.0, 2025-03-02 19:55:35.351
218.0, 22409.277845535024, 13071.613081885944, 0.0, 0.0, 0.0, 0.0, 0.0, 15907.356549186296, 0.03, -0.02, 0.996, 192.0, 0.0, 0.0, 0.0, 0.0, 0.0, 0.0, 0.0, 0.0, 0.0, 1.740938135351925E9, 0.0, 2025-03-02 19:55:35.351
219.0, 22223.95953225607, 13083.750079125177, 0.0, 0.0, 0.0, 0.0, 0.0, 19212.218429114633, 0.03, -0.02, 0.996, 192.0, 0.0, 0.0, 0.0, 0.0, 0.0, 0.0, 0.0, 0.0, 0.0, 1.740938135351946E9, 0.0, 2025-03-02 19:55:35.351
220.0, 22122.080281028782, 12833.432892970193, 0.0, 0.0, 0.0, 0.0, 0.0, 19241.72273179564, 0.03, -0.02, 0.996, 192.0, 0.0, 0.0, 0.0, 0.0, 0.0, 0.0, 0.0, 0.0, 0.0, 1.740938135352028E9, 0.0, 2025-03-02 19:55:35.352
221.0, 22138.598220181255, 12793.691491328656, 0.0, 0.0, 0.0, 0.0, 0.0, 18818.358340067665, 0.03, -0.02, 0.996, 192.0, 0.0, 0.0, 0.0, 0.0, 0.0, 0.0, 0.0, 0.0, 0.0, 1.740938135352069E9, 0.0, 2025-03-02 19:55:35.352
222.0, 22301.94476866064, 12797.021901252498, 0.0, 0.0, 0.0, 0.0, 0.0, 16092.227827576142, 0.03, -0.02, 0.996, 192.0, 0.0, 0.0, 0.0, 0.0, 0.0, 0.0, 0.0, 0.0, 0.0, 1.740938135352108E9, 0.0, 2025-03-02 19:55:35.352
223.0, 22407.892037378795, 13068.6850033623, 0.0, 0.0, 0.0, 0.0, 0.0, 15849.465531047052, 0.024, -0.02, 0.998, 192.0, 0.0, 192.0, 255.0, 96.0, 31.0, 48.0, 0.0, 0.0, 0.0, 1.740938135352146E9, 0.0, 2025-03-02 19:55:35.352
224.0, 22221.947875255093, 13091.349672239981, 0.0, 0.0, 0.0, 0.0, 0.0, 19182.915292133726, 0.024, -0.02, 0.998, 192.0, 0.0, 0.0, 0.0, 0.0, 0.0, 0.0, 0.0, 0.0, 0.0, 1.740938135352187E9, 0.0, 2025-03-02 19:55:35.352
225.0, 22125.254228741436, 12841.54657620747, 0.0, 0.0, 0.0, 0.0, 0.0, 19246.148377197787, 0.024, -0.02, 0.998, 192.0, 0.0, 0.0, 0.0, 0.0, 0.0, 0.0, 0.0, 0.0, 0.0, 1.74093813535224E9, 0.0, 2025-03-02 19:55:35.352
226.0, 22139.201717281547, 12799.994683265053, 0.0, 0.0, 0.0, 0.0, 0.0, 18835.055093175783, 0.024, -0.02, 0.998, 192.0, 0.0, 0.0, 0.0, 0.0, 0.0, 0.0, 0.0, 0.0, 0.0, 1.740938135410623E9, 0.0, 2025-03-02 19:55:35.410
227.0, 22304.716384973097, 12802.408671666226, 0.0, 0.0, 0.0, 0.0, 0.0, 16116.18889763223, 0.024, -0.02, 0.998, 192.0, 0.0, 0.0, 0.0, 0.0, 0.0, 0.0, 0.0, 0.0, 0.0, 1.74093813541067E9, 0.0, 2025-03-02 19:55:35.410
228.0, 22411.088336835903, 13067.6344713729, 0.0, 0.0, 0.0, 0.0, 0.0, 15841.664772232149, 0.024, -0.02, 0.998, 192.0, 0.0, 0.0, 0.0, 0.0, 0.0, 0.0, 0.0, 0.0, 0.0, 1.740938135410693E9, 0.0, 2025-03-02 19:55:35.410
229.0, 22218.617465331256, 13084.130058780916, 0.0, 0.0, 0.0, 0.0, 0.0, 19182.110629333332, 0.024, -0.02, 0.998, 192.0, 0.0, 0.0, 0.0, 0.0, 0.0, 0.0, 0.0, 0.0, 0.0, 1.740938135410715E9, 0.0, 2025-03-02 19:55:35.410
230.0, 22123.89077232966, 12840.965430851631, 0.0, 0.0, 0.0, 0.0, 0.0, 19249.635249332816, 0.024, -0.02, 0.998, 192.0, 0.0, 0.0, 0.0, 0.0, 0.0, 0.0, 0.0, 0.0, 0.0, 1.740938135410736E9, 0.0, 2025-03-02 19:55:35.410
231.0, 22136.60891492473, 12796.284293685472, 0.0, 0.0, 0.0, 0.0, 0.0, 18826.516726793852, 0.024, -0.02, 0.998, 192.0, 0.0, 0.0, 0.0, 0.0, 0.0, 0.0, 0.0, 0.0, 0.0, 1.740938135410757E9, 0.0, 2025-03-02 19:55:35.410
232.0, 22291.394745277732, 12793.557380861925, 0.0, 0.0, 0.0, 0.0, 0.0, 16127.700046026714, 0.024, -0.02, 0.998, 192.0, 0.0, 0.0, 0.0, 0.0, 0.0, 0.0, 0.0, 0.0, 0.0, 1.740938135410778E9, 0.0, 2025-03-02 19:55:35.410
233.0, 22409.56841821294, 13066.740401594687, 0.0, 0.0, 0.0, 0.0, 0.0, 15793.452059442052, 0.026000000000000002, -0.024, 0.998, 192.0, 0.0, 208.0, 255.0, 64.0, 31.0, 48.0, 0.0, 0.0, 0.0, 1.740938135410799E9, 0.0, 2025-03-02 19:55:35.410
234.0, 22227.87108753575, 13093.003701329673, 0.0, 0.0, 0.0, 0.0, 0.0, 19191.56541723793, 0.026000000000000002, -0.024, 0.998, 192.0, 0.0, 0.0, 0.0, 0.0, 0.0, 0.0, 0.0, 0.0, 0.0, 1.740938135410822E9, 0.0, 2025-03-02 19:55:35.410
235.0, 22124.650731641144, 12835.243384271073, 0.0, 0.0, 0.0, 0.0, 0.0, 19279.675993880748, 0.026000000000000002, -0.024, 0.998, 192.0, 0.0, 0.0, 0.0, 0.0, 0.0, 0.0, 0.0, 0.0, 0.0, 1.740938135410843E9, 0.0, 2025-03-02 19:55:35.410
236.0, 22129.09872878775, 12798.184191964174, 0.0, 0.0, 0.0, 0.0, 0.0, 18834.608058286674, 0.026000000000000002, -0.024, 0.998, 192.0, 0.0, 0.0, 0.0, 0.0, 0.0, 0.0, 0.0, 0.0, 0.0, 1.740938135410864E9, 0.0, 2025-03-02 19:55:35.410
237.0, 22285.985623119548, 12794.786726806966, 0.0, 0.0, 0.0, 0.0, 0.0, 16133.802072263012, 0.026000000000000002, -0.024, 0.998, 192.0, 0.0, 0.0, 0.0, 0.0, 0.0, 0.0, 0.0, 0.0, 0.0, 1.740938135410939E9, 0.0, 2025-03-02 19:55:35.410
238.0, 22407.467354234144, 13061.711259092244, 0.0, 0.0, 0.0, 0.0, 0.0, 15772.709640587527, 0.026000000000000002, -0.024, 0.998, 192.0, 0.0, 0.0, 0.0, 0.0, 0.0, 0.0, 0.0, 0.0, 0.0, 1.740938135410961E9, 0.0, 2025-03-02 19:55:35.410
239.0, 22216.270532163446, 13090.321491995037, 0.0, 0.0, 0.0, 0.0, 0.0, 19184.859893901335, 0.026000000000000002, -0.024, 0.998, 192.0, 0.0, 0.0, 0.0, 0.0, 0.0, 0.0, 0.0, 0.0, 0.0, 1.740938135410991E9, 0.0, 2025-03-02 19:55:35.410
240.0, 22116.693510615052, 12840.406637240249, 0.0, 0.0, 0.0, 0.0, 0.0, 19272.657546121784, 0.026000000000000002, -0.024, 0.998, 192.0, 0.0, 0.0, 0.0, 0.0, 0.0, 0.0, 0.0, 0.0, 0.0, 1.740938135411033E9, 0.0, 2025-03-02 19:55:35.411
241.0, 22130.752757877442, 12792.52920061698, 0.0, 0.0, 0.0, 0.0, 0.0, 18824.169793626046, 0.026000000000000002, -0.024, 0.998, 192.0, 0.0, 0.0, 0.0, 0.0, 0.0, 0.0, 0.0, 0.0, 0.0, 1.740938135470973E9, 0.0, 2025-03-02 19:55:35.470
242.0, 22282.856378895805, 12785.309587157917, 0.0, 0.0, 0.0, 0.0, 0.0, 16125.800147748012, 0.03, -0.024, 0.996, 192.0, 0.0, 240.0, 255.0, 64.0, 31.0, 32.0, 0.0, 0.0, 0.0, 1.740938135471017E9, 0.0, 2025-03-02 19:55:35.471
243.0, 22409.34490076839, 13061.308927692047, 0.0, 0.0, 0.0, 0.0, 0.0, 15740.567832060795, 0.03, -0.024, 0.996, 192.0, 0.0, 0.0, 0.0, 0.0, 0.0, 0.0, 0.0, 0.0, 0.0, 1.740938135471043E9, 0.0, 2025-03-02 19:55:35.471
244.0, 22217.87985776423, 13086.54404718209, 0.0, 0.0, 0.0, 0.0, 0.0, 19169.258376271533, 0.03, -0.024, 0.996, 192.0, 0.0, 0.0, 0.0, 0.0, 0.0, 0.0, 0.0, 0.0, 0.0, 1.740938135471066E9, 0.0, 2025-03-02 19:55:35.471
245.0, 22121.208562995027, 12852.54363447948, 0.0, 0.0, 0.0, 0.0, 0.0, 19288.1026015404, 0.03, -0.024, 0.996, 192.0, 0.0, 0.0, 0.0, 0.0, 0.0, 0.0, 0.0, 0.0, 0.0, 1.740938135471088E9, 0.0, 2025-03-02 19:55:35.471
246.0, 22135.558382935335, 12815.7750148505, 0.0, 0.0, 0.0, 0.0, 0.0, 18851.3495148837, 0.03, -0.024, 0.996, 192.0, 0.0, 0.0, 0.0, 0.0, 0.0, 0.0, 0.0, 0.0, 0.0, 1.740938135471111E9, 0.0, 2025-03-02 19:55:35.471
247.0, 22290.16539933269, 12796.44075589666, 0.0, 0.0, 0.0, 0.0, 0.0, 16145.357924146407, 0.03, -0.024, 0.996, 192.0, 0.0, 0.0, 0.0, 0.0, 0.0, 0.0, 0.0, 0.0, 0.0, 1.740938135471133E9, 0.0, 2025-03-02 19:55:35.471
248.0, 22415.893961893795, 13063.96878528223, 0.0, 0.0, 0.0, 0.0, 0.0, 15701.899314153114, 0.03, -0.024, 0.996, 192.0, 0.0, 0.0, 0.0, 0.0, 0.0, 0.0, 0.0, 0.0, 0.0, 1.740938135471155E9, 0.0, 2025-03-02 19:55:35.471
249.0, 22225.770023556954, 13102.123213067438, 0.0, 0.0, 0.0, 0.0, 0.0, 19173.41580074022, 0.03, -0.024, 0.996, 192.0, 0.0, 0.0, 0.0, 0.0, 0.0, 0.0, 0.0, 0.0, 0.0, 1.740938135471177E9, 0.0, 2025-03-02 19:55:35.471
250.0, 22112.536086146367, 12844.742875664579, 0.0, 0.0, 0.0, 0.0, 0.0, 19301.82657263596, 0.03, -0.024, 0.996, 192.0, 0.0, 0.0, 0.0, 0.0, 0.0, 0.0, 0.0, 0.0, 0.0, 1.740938135471199E9, 0.0, 2025-03-02 19:55:35.471
251.0, 22118.7722228494, 12793.847953539844, 0.0, 0.0, 0.0, 0.0, 0.0, 18858.099741709204, 0.03, -0.024, 0.996, 192.0, 0.0, 0.0, 0.0, 0.0, 0.0, 0.0, 0.0, 0.0, 0.0, 1.740938135471237E9, 0.0, 2025-03-02 19:55:35.471
252.0, 22266.78547463244, 12779.565188832903, 0.0, 0.0, 0.0, 0.0, 0.0, 16176.605662894925, 0.03, -0.024, 0.994, 192.0, 0.0, 240.0, 255.0, 64.0, 31.0, 16.0, 0.0, 0.0, 0.0, 1.74093813547126E9, 0.0, 2025-03-02 19:55:35.471
253.0, 22390.68119414821, 13047.897881018864, 0.0, 0.0, 0.0, 0.0, 0.0, 15692.399822759608, 0.03, -0.024, 0.994, 192.0, 0.0, 0.0, 0.0, 0.0, 0.0, 0.0, 0.0, 0.0, 0.0, 1.740938135471283E9, 0.0, 2025-03-02 19:55:35.471
254.0, 22216.985787986017, 13098.099899065483, 0.0, 0.0, 0.0, 0.0, 0.0, 19135.909573544213, 0.03, -0.024, 0.994, 192.0, 0.0, 0.0, 0.0, 0.0, 0.0, 0.0, 0.0, 0.0, 0.0, 1.740938135471351E9, 0.0, 2025-03-02 19:55:35.471
255.0, 22111.93258904607, 12844.8322826424, 0.0, 0.0, 0.0, 0.0, 0.0, 19289.980148074646, 0.03, -0.024, 0.994, 192.0, 0.0, 0.0, 0.0, 0.0, 0.0, 0.0, 0.0, 0.0, 0.0, 1.740938135471373E9, 0.0, 2025-03-02 19:55:35.471
0.0, 22120.38154845018, 12801.045215254453, 0.0, 0.0, 0.0, 0.0, 0.0, 18869.63324184814, 0.03, -0.024, 0.994, 192.0, 0.0, 0.0, 0.0, 0.0, 0.0, 0.0, 0.0, 0.0, 0.0, 1.740938135531277E9, 0.0, 2025-03-02 19:55:35.531
1.0, 22268.372448488768, 12782.694433056646, 0.0, 0.0, 0.0, 0.0, 0.0, 16215.20712556924, 0.03, -0.024, 0.994, 192.0, 0.0, 0.0, 0.0, 0.0, 0.0, 0.0, 0.0, 0.0, 0.0, 1.740938135531335E9, 0.0, 2025-03-02 19:55:35.531
2.0, 22405.187476299703, 13059.051401502062, 0.0, 0.0, 0.0, 0.0, 0.0, 15678.854665619692, 0.03, -0.024, 0.994, 192.0, 0.0, 0.0, 0.0, 0.0, 0.0, 0.0, 0.0, 0.0, 0.0, 1.740938135531381E9, 0.0, 2025-03-02 19:55:35.531
3.0, 22222.283151421925, 13111.332131783025, 0.0, 0.0, 0.0, 0.0, 0.0, 19142.27982071398, 0.03, -0.024, 0.994, 192.0, 0.0, 0.0, 0.0, 0.0, 0.0, 0.0, 0.0, 0.0, 0.0, 1.740938135531422E9, 0.0, 2025-03-02 19:55:35.531
4.0, 22109.85387681173, 12853.348297279872, 0.0, 0.0, 0.0, 0.0, 0.0, 19305.62636919336, 0.03, -0.024, 0.994, 192.0, 0.0, 0.0, 0.0, 0.0, 0.0, 0.0, 0.0, 0.0, 0.0, 1.740938135531462E9, 0.0, 2025-03-02 19:55:35.531
5.0, 22118.124022260192, 12789.24349418205, 0.0, 0.0, 0.0, 0.0, 0.0, 18857.183320186534, 0.03, -0.024, 0.994, 192.0, 0.0, 0.0, 0.0, 0.0, 0.0, 0.0, 0.0, 0.0, 0.0, 1.740938135531484E9, 0.0, 2025-03-02 19:55:35.531
6.0, 22259.58821291783, 12762.801380491423, 0.0, 0.0, 0.0, 0.0, 0.0, 16207.719291176712, 0.03, -0.026000000000000002, 0.996, 192.0, 0.0, 240.0, 255.0, 48.0, 31.0, 32.0, 0.0, 0.0, 0.0, 1.740938135531505E9, 0.0, 2025-03-02 19:55:35.531
7.0, 22399.10780180786, 13040.857081515442, 0.0, 0.0, 0.0, 0.0, 0.0, 15653.105456007179, 0.03, -0.026000000000000002, 0.996, 192.0, 0.0, 0.0, 0.0, 0.0, 0.0, 0.0, 0.0, 0.0, 0.0, 1.740938135531527E9, 0.0, 2025-03-02 19:55:35.531
8.0, 22232.58730561582, 13101.07268107804, 0.0, 0.0, 0.0, 0.0, 0.0, 19150.371152206797, 0.03, -0.026000000000000002, 0.996, 192.0, 0.0, 0.0, 0.0, 0.0, 0.0, 0.0, 0.0, 0.0, 0.0, 1.740938135531548E9, 0.0, 2025-03-02 19:55:35.531
9.0, 22116.84997282624, 12855.315250791939, 0.0, 0.0, 0.0, 0.0, 0.0, 19334.281305585064, 0.03, -0.026000000000000002, 0.996, 192.0, 0.0, 0.0, 0.0, 0.0, 0.0, 0.0, 0.0, 0.0, 0.0, 1.740938135531569E9, 0.0, 2025-03-02 19:55:35.531
10.0, 22122.05792928433, 12800.017035009509, 0.0, 0.0, 0.0, 0.0, 0.0, 18882.038460020838, 0.03, -0.026000000000000002, 0.996, 192.0, 0.0, 0.0, 0.0, 0.0, 0.0, 0.0, 0.0, 0.0, 0.0, 1.74093813553159E9, 0.0, 2025-03-02 19:55:35.531
11.0, 22274.273309024968, 12790.361081404815, 0.0, 0.0, 0.0, 0.0, 0.0, 16250.92521320882, 0.03, -0.026000000000000002, 0.996, 192.0, 0.0, 0.0, 0.0, 0.0, 0.0, 0.0, 0.0, 0.0, 0.0, 1.740938135531611E9, 0.0, 2025-03-02 19:55:35.531
12.0, 22411.155392069268, 13054.82692180001, 0.0, 0.0, 0.0, 0.0, 0.0, 15627.177432439023, 0.03, -0.026000000000000002, 0.996, 192.0, 0.0, 0.0, 0.0, 0.0, 0.0, 0.0, 0.0, 0.0, 0.0, 1.740938135531631E9, 0.0, 2025-03-02 19:55:35.531
13.0, 22236.767081828963, 13099.21748628825, 0.0, 0.0, 0.0, 0.0, 0.0, 19126.365378661798, 0.03, -0.026000000000000002, 0.996, 192.0, 0.0, 0.0, 0.0, 0.0, 0.0, 0.0, 0.0, 0.0, 0.0, 1.740938135531652E9, 0.0, 2025-03-02 19:55:35.531
14.0, 22113.676025113586, 12842.954736108153, 0.0, 0.0, 0.0, 0.0, 0.0, 19355.22489013969, 0.03, -0.026000000000000002, 0.996, 192.0, 0.0, 0.0, 0.0, 0.0, 0.0, 0.0, 0.0, 0.0, 0.0, 1.740938135531674E9, 0.0, 2025-03-02 19:55:35.531
15.0, 22111.418498923602, 12783.990834235054, 0.0, 0.0, 0.0, 0.0, 0.0, 18894.73425087145, 0.03, -0.026000000000000002, 0.996, 192.0, 0.0, 0.0, 0.0, 0.0, 0.0, 0.0, 0.0, 0.0, 0.0, 1.74093813559161E9, 0.0, 2025-03-02 19:55:35.591
16.0, 22261.5551664299, 12768.992813705543, 0.0, 0.0, 0.0, 0.0, 0.0, 16276.070925721042, 0.03, -0.026000000000000002, 0.992, 192.0, 0.0, 240.0, 255.0, 48.0, 31.0, 0.0, 0.0, 0.0, 0.0, 1.740938135591713E9, 0.0, 2025-03-02 19:55:35.591
17.0, 22402.594673942887, 13040.454750115246, 0.0, 0.0, 0.0, 0.0, 0.0, 15602.366996093631, 0.03, -0.026000000000000002, 0.992, 192.0, 0.0, 0.0, 0.0, 0.0, 0.0, 0.0, 0.0, 0.0, 0.0, 1.740938135591764E9, 0.0, 2025-03-02 19:55:35.591
18.0, 22232.25202944899, 13102.011454345162, 0.0, 0.0, 0.0, 0.0, 0.0, 19094.089459668336, 0.03, -0.026000000000000002, 0.992, 192.0, 0.0, 0.0, 0.0, 0.0, 0.0, 0.0, 0.0, 0.0, 0.0, 1.740938135591854E9, 0.0, 2025-03-02 19:55:35.591
19.0, 22116.782917592875, 12845.525186720513, 0.0, 0.0, 0.0, 0.0, 0.0, 19358.823520996993, 0.03, -0.026000000000000002, 0.992, 192.0, 0.0, 0.0, 0.0, 0.0, 0.0, 0.0, 0.0, 0.0, 0.0, 1.740938135591917E9, 0.0, 2025-03-02 19:55:35.591
20.0, 22119.465126927513, 12788.260017426017, 0.0, 0.0, 0.0, 0.0, 0.0, 18912.45918422451, 0.03, -0.026000000000000002, 0.992, 192.0, 0.0, 0.0, 0.0, 0.0, 0.0, 0.0, 0.0, 0.0, 0.0, 1.740938135591973E9, 0.0, 2025-03-02 19:55:35.591
21.0, 22264.751465887006, 12765.371831103783, 0.0, 0.0, 0.0, 0.0, 0.0, 16297.729766098235, 0.03, -0.026000000000000002, 0.992, 192.0, 0.0, 0.0, 0.0, 0.0, 0.0, 0.0, 0.0, 0.0, 0.0, 1.740938135592013E9, 0.0, 2025-03-02 19:55:35.592
22.0, 22406.170953055735, 13039.337162892482, 0.0, 0.0, 0.0, 0.0, 0.0, 15587.771306964316, 0.03, -0.026000000000000002, 0.992, 192.0, 0.0, 0.0, 0.0, 0.0, 0.0, 0.0, 0.0, 0.0, 0.0, 1.740938135592059E9, 0.0, 2025-03-02 19:55:35.592
23.0, 22233.43667190512, 13102.994931101195, 0.0, 0.0, 0.0, 0.0, 0.0, 19094.849418979815, 0.03, -0.026000000000000002, 0.992, 192.0, 0.0, 0.0, 0.0, 0.0, 0.0, 0.0, 0.0, 0.0, 0.0, 1.740938135592092E9, 0.0, 2025-03-02 19:55:35.592
24.0, 22112.04434776835, 12839.981954095598, 0.0, 0.0, 0.0, 0.0, 0.0, 19355.314297117508, 0.03, -0.026000000000000002, 0.992, 192.0, 0.0, 0.0, 0.0, 0.0, 0.0, 0.0, 0.0, 0.0, 0.0, 1.740938135592127E9, 0.0, 2025-03-02 19:55:35.592
25.0, 22113.43015592458, 12781.822715022889, 0.0, 0.0, 0.0, 0.0, 0.0, 18905.977178332472, 0.03, -0.026000000000000002, 0.992, 192.0, 0.0, 0.0, 0.0, 0.0, 0.0, 0.0, 0.0, 0.0, 0.0, 1.740938135592174E9, 0.0, 2025-03-02 19:55:35.592
26.0, 22259.92348908466, 12763.695450269635, 0.0, 0.0, 0.0, 0.0, 0.0, 16338.544051473626, 0.032, -0.024, 0.994, 192.0, 1.0, 0.0, 255.0, 64.0, 31.0, 16.0, 0.0, 0.0, 0.0, 1.740938135592234E9, 0.0, 2025-03-02 19:55:35.592
27.0, 22403.555798954465, 13036.967877980218, 0.0, 0.0, 0.0, 0.0, 0.0, 15581.937501661481, 0.032, -0.024, 0.994, 192.0, 0.0, 0.0, 0.0, 0.0, 0.0, 0.0, 0.0, 0.0, 0.0, 1.74093813559229E9, 0.0, 2025-03-02 19:55:35.592
28.0, 22228.943971269604, 13098.859858376964, 0.0, 0.0, 0.0, 0.0, 0.0, 19076.520988526463, 0.032, -0.024, 0.994, 192.0, 0.0, 0.0, 0.0, 0.0, 0.0, 0.0, 0.0, 0.0, 0.0, 1.740938135592342E9, 0.0, 2025-03-02 19:55:35.592
29.0, 22112.536086146367, 12840.808968640444, 0.0, 0.0, 0.0, 0.0, 0.0, 19360.946936720247, 0.032, -0.024, 0.994, 192.0, 0.0, 0.0, 0.0, 0.0, 0.0, 0.0, 0.0, 0.0, 0.0, 1.740938135592401E9, 0.0, 2025-03-02 19:55:35.592
30.0, 22113.586618135767, 12782.157991189719, 0.0, 0.0, 0.0, 0.0, 0.0, 18918.561210460808, 0.032, -0.024, 0.994, 192.0, 0.0, 0.0, 0.0, 0.0, 0.0, 0.0, 0.0, 0.0, 0.0, 1.740938135651818E9, 0.0, 2025-03-02 19:55:35.651
31.0, 22256.235451249537, 12759.873301967777, 0.0, 0.0, 0.0, 0.0, 0.0, 16354.458493525803, 0.032, -0.024, 0.994, 192.0, 0.0, 0.0, 0.0, 0.0, 0.0, 0.0, 0.0, 0.0, 0.0, 1.740938135651866E9, 0.0, 2025-03-02 19:55:35.651
32.0, 22407.355595511868, 13034.710351790232, 0.0, 0.0, 0.0, 0.0, 0.0, 15554.93659435947, 0.032, -0.024, 0.994, 192.0, 0.0, 0.0, 0.0, 0.0, 0.0, 0.0, 0.0, 0.0, 0.0, 1.740938135651956E9, 0.0, 2025-03-02 19:55:35.651
33.0, 22239.382235930236, 13109.58869571551, 0.0, 0.0, 0.0, 0.0, 0.0, 19066.663869221673, 0.032, -0.024, 0.994, 192.0, 0.0, 0.0, 0.0, 0.0, 0.0, 0.0, 0.0, 0.0, 0.0, 1.740938135651984E9, 0.0, 2025-03-02 19:55:35.651
34.0, 22110.32326344529, 12840.183119795694, 0.0, 0.0, 0.0, 0.0, 0.0, 19365.797265267047, 0.032, -0.024, 0.994, 192.0, 0.0, 0.0, 0.0, 0.0, 0.0, 0.0, 0.0, 0.0, 0.0, 1.74093813565201E9, 0.0, 2025-03-02 19:55:35.652
35.0, 22113.117231502205, 12782.917950501198, 0.0, 0.0, 0.0, 0.0, 0.0, 18923.232725051967, 0.032, -0.022, 0.992, 192.0, 1.0, 0.0, 255.0, 80.0, 31.0, 0.0, 0.0, 0.0, 0.0, 1.740938135652034E9, 0.0, 2025-03-02 19:55:35.652
36.0, 22253.888518081727, 12761.90731071321, 0.0, 0.0, 0.0, 0.0, 0.0, 16374.329194346572, 0.032, -0.022, 0.992, 192.0, 0.0, 0.0, 0.0, 0.0, 0.0, 0.0, 0.0, 0.0, 0.0, 1.740938135652057E9, 0.0, 2025-03-02 19:55:35.652
37.0, 22396.269130262033, 13027.356627864436, 0.0, 0.0, 0.0, 0.0, 0.0, 15510.434271148953, 0.032, -0.022, 0.992, 192.0, 0.0, 0.0, 0.0, 0.0, 0.0, 0.0, 0.0, 0.0, 0.0, 1.740938135652081E9, 0.0, 2025-03-02 19:55:35.652
38.0, 22238.01877951846, 13096.535276953611, 0.0, 0.0, 0.0, 0.0, 0.0, 19040.95936309807, 0.032, -0.022, 0.992, 192.0, 0.0, 0.0, 0.0, 0.0, 0.0, 0.0, 0.0, 0.0, 0.0, 1.740938135652104E9, 0.0, 2025-03-02 19:55:35.652
39.0, 22118.928685060586, 12828.694323145668, 0.0, 0.0, 0.0, 0.0, 0.0, 19374.045058971056, 0.032, -0.022, 0.992, 192.0, 0.0, 0.0, 0.0, 0.0, 0.0, 0.0, 0.0, 0.0, 0.0, 1.740938135652129E9, 0.0, 2025-03-02 19:55:35.652
40.0, 22103.6177401087, 12769.417496850194, 0.0, 0.0, 0.0, 0.0, 0.0, 18925.55730647532, 0.032, -0.022, 0.992, 192.0, 0.0, 0.0, 0.0, 0.0, 0.0, 0.0, 0.0, 0.0, 0.0, 1.740938135652152E9, 0.0, 2025-03-02 19:55:35.652
41.0, 22241.371541186756, 12748.630374506758, 0.0, 0.0, 0.0, 0.0, 0.0, 16402.24652317125, 0.032, -0.022, 0.992, 192.0, 0.0, 0.0, 0.0, 0.0, 0.0, 0.0, 0.0, 0.0, 0.0, 1.740938135652176E9, 0.0, 2025-03-02 19:55:35.652
42.0, 22391.061173803948, 13009.676398000289, 0.0, 0.0, 0.0, 0.0, 0.0, 15495.369195386076, 0.032, -0.022, 0.992, 192.0, 0.0, 0.0, 0.0, 0.0, 0.0, 0.0, 0.0, 0.0, 0.0, 1.740938135652199E9, 0.0, 2025-03-02 19:55:35.652
43.0, 22232.63200910473, 13097.652864176378, 0.0, 0.0, 0.0, 0.0, 0.0, 19009.801031327373, 0.032, -0.022, 0.992, 192.0, 0.0, 0.0, 0.0, 0.0, 0.0, 0.0, 0.0, 0.0, 0.0, 1.74093813565226E9, 0.0, 2025-03-02 19:55:35.652
44.0, 22106.523466887887, 12838.037352327985, 0.0, 0.0, 0.0, 0.0, 0.0, 19370.111151946923, 0.032, -0.022, 0.992, 192.0, 0.0, 0.0, 0.0, 0.0, 0.0, 0.0, 0.0, 0.0, 0.0, 1.740938135652302E9, 0.0, 2025-03-02 19:55:35.652
45.0, 22104.154181975628, 12783.946130746142, 0.0, 0.0, 0.0, 0.0, 0.0, 18922.383358762665, 0.032, -0.022, 0.994, 192.0, 1.0, 0.0, 255.0, 80.0, 31.0, 16.0, 0.0, 0.0, 0.0, 1.740938135710706E9, 0.0, 2025-03-02 19:55:35.710
46.0, 22248.904079068194, 12760.163874645696, 0.0, 0.0, 0.0, 0.0, 0.0, 16414.987017510775, 0.032, -0.022, 0.994, 192.0, 0.0, 0.0, 0.0, 0.0, 0.0, 0.0, 0.0, 0.0, 0.0, 1.74093813571077E9, 0.0, 2025-03-02 19:55:35.710
47.0, 22398.77252564103, 13018.639447526866, 0.0, 0.0, 0.0, 0.0, 0.0, 15496.531486097752, 0.032, -0.022, 0.994, 192.0, 0.0, 0.0, 0.0, 0.0, 0.0, 0.0, 0.0, 0.0, 0.0, 1.740938135710815E9, 0.0, 2025-03-02 19:55:35.710
48.0, 22233.25785794948, 13103.330207268025, 0.0, 0.0, 0.0, 0.0, 0.0, 19002.492010890488, 0.032, -0.022, 0.994, 192.0, 0.0, 0.0, 0.0, 0.0, 0.0, 0.0, 0.0, 0.0, 0.0, 1.740938135710858E9, 0.0, 2025-03-02 19:55:35.710
49.0, 22114.547743147345, 12852.230710057105, 0.0, 0.0, 0.0, 0.0, 0.0, 19381.868169530415, 0.032, -0.022, 0.994, 192.0, 0.0, 0.0, 0.0, 0.0, 0.0, 0.0, 0.0, 0.0, 0.0, 1.740938135710965E9, 0.0, 2025-03-02 19:55:35.710
50.0, 22118.012263537916, 12803.950942033642, 0.0, 0.0, 0.0, 0.0, 0.0, 18935.83910892476, 0.032, -0.022, 0.994, 192.0, 0.0, 0.0, 0.0, 0.0, 0.0, 0.0, 0.0, 0.0, 0.0, 1.740938135711002E9, 0.0, 2025-03-02 19:55:35.711
51.0, 22259.901137340206, 12781.375680133782, 0.0, 0.0, 0.0, 0.0, 0.0, 16441.853814346054, 0.032, -0.022, 0.994, 192.0, 0.0, 0.0, 0.0, 0.0, 0.0, 0.0, 0.0, 0.0, 0.0, 1.740938135711036E9, 0.0, 2025-03-02 19:55:35.711
52.0, 22409.05432809047, 13028.898898231853, 0.0, 0.0, 0.0, 0.0, 0.0, 15468.904729950993, 0.032, -0.022, 0.994, 192.0, 0.0, 0.0, 0.0, 0.0, 0.0, 0.0, 0.0, 0.0, 0.0, 1.740938135711074E9, 0.0, 2025-03-02 19:55:35.711
53.0, 22244.16550924367, 13119.423463275847, 0.0, 0.0, 0.0, 0.0, 0.0, 18988.678632817107, 0.032, -0.022, 0.994, 192.0, 0.0, 0.0, 0.0, 0.0, 0.0, 0.0, 0.0, 0.0, 0.0, 1.740938135711106E9, 0.0, 2025-03-02 19:55:35.711
54.0, 22117.229952481983, 12849.25792804455, 0.0, 0.0, 0.0, 0.0, 0.0, 19397.536742393582, 0.032, -0.022, 0.994, 192.0, 0.0, 0.0, 0.0, 0.0, 0.0, 0.0, 0.0, 0.0, 0.0, 1.740938135711136E9, 0.0, 2025-03-02 19:55:35.711
55.0, 22113.541914646856, 12776.882979498265, 0.0, 0.0, 0.0, 0.0, 0.0, 18953.072303899804, 0.036000000000000004, -0.016, 1.0, 192.0, 1.0, 32.0, 255.0, 128.0, 31.0, 64.0, 0.0, 0.0, 0.0, 1.74093813571117E9, 0.0, 2025-03-02 19:55:35.711
56.0, 22244.16550924367, 12751.893729197232, 0.0, 0.0, 0.0, 0.0, 0.0, 16482.042250876697, 0.036000000000000004, -0.016, 1.0, 192.0, 0.0, 0.0, 0.0, 0.0, 0.0, 0.0, 0.0, 0.0, 0.0, 1.740938135711218E9, 0.0, 2025-03-02 19:55:35.711
57.0, 22396.559702939954, 13010.011674167119, 0.0, 0.0, 0.0, 0.0, 0.0, 15458.555872268185, 0.036000000000000004, -0.016, 1.0, 192.0, 0.0, 0.0, 0.0, 0.0, 0.0, 0.0, 0.0, 0.0, 0.0, 1.740938135711255E9, 0.0, 2025-03-02 19:55:35.711
58.0, 22237.482337651534, 13099.597465943989, 0.0, 0.0, 0.0, 0.0, 0.0, 18966.304536617343, 0.036000000000000004, -0.016, 1.0, 192.0, 0.0, 0.0, 0.0, 0.0, 0.0, 0.0, 0.0, 0.0, 0.0, 1.74093813571129E9, 0.0, 2025-03-02 19:55:35.711
59.0, 22112.08905125726, 12838.260869772539, 0.0, 0.0, 0.0, 0.0, 0.0, 19380.392954396364, 0.036000000000000004, -0.016, 1.0, 192.0, 0.0, 0.0, 0.0, 0.0, 0.0, 0.0, 0.0, 0.0, 0.0, 1.740938135711335E9, 0.0, 2025-03-02 19:55:35.711
60.0, 22118.235780982468, 12781.778011533977, 0.0, 0.0, 0.0, 0.0, 0.0, 18934.810928679817, 0.036000000000000004, -0.016, 1.0, 192.0, 0.0, 0.0, 0.0, 0.0, 0.0, 0.0, 0.0, 0.0, 0.0, 1.740938135771009E9, 0.0, 2025-03-02 19:55:35.771
61.0, 22248.63585813473, 12755.313546098894, 0.0, 0.0, 0.0, 0.0, 0.0, 16502.158820886474, 0.036000000000000004, -0.016, 1.0, 192.0, 0.0, 0.0, 0.0, 0.0, 0.0, 0.0, 0.0, 0.0, 0.0, 1.740938135771052E9, 0.0, 2025-03-02 19:55:35.771
62.0, 22405.634511188808, 13019.824089982998, 0.0, 0.0, 0.0, 0.0, 0.0, 15431.085578332613, 0.036000000000000004, -0.016, 1.0, 192.0, 0.0, 0.0, 0.0, 0.0, 0.0, 0.0, 0.0, 0.0, 0.0, 1.740938135771075E9, 0.0, 2025-03-02 19:55:35.771
63.0, 22248.16647150117, 13117.769434186153, 0.0, 0.0, 0.0, 0.0, 0.0, 18938.70013221504, 0.036000000000000004, -0.016, 1.0, 192.0, 0.0, 0.0, 0.0, 0.0, 0.0, 0.0, 0.0, 0.0, 0.0, 1.740938135771097E9, 0.0, 2025-03-02 19:55:35.771
64.0, 22128.539935176366, 12860.344393294383, 0.0, 0.0, 0.0, 0.0, 0.0, 19376.079067716488, 0.036000000000000004, -0.016, 1.0, 192.0, 0.0, 0.0, 0.0, 0.0, 0.0, 0.0, 0.0, 0.0, 0.0, 1.740938135771119E9, 0.0, 2025-03-02 19:55:35.771
65.0, 22114.324225702792, 12778.447601610138, 0.0, 0.0, 0.0, 0.0, 0.0, 18939.817719437804, 0.036000000000000004, -0.018000000000000002, 0.996, 192.0, 1.0, 32.0, 255.0, 112.0, 31.0, 32.0, 0.0, 0.0, 0.0, 1.74093813577114E9, 0.0, 2025-03-02 19:55:35.771
66.0, 22227.02172124645, 12734.213499333084, 0.0, 0.0, 0.0, 0.0, 0.0, 16527.572754332155, 0.036000000000000004, -0.018000000000000002, 0.996, 192.0, 0.0, 0.0, 0.0, 0.0, 0.0, 0.0, 0.0, 0.0, 0.0, 1.740938135771224E9, 0.0, 2025-03-02 19:55:35.771
67.0, 22381.114647521335, 12988.129316345372, 0.0, 0.0, 0.0, 0.0, 0.0, 15411.259581000755, 0.036000000000000004, -0.018000000000000002, 0.996, 192.0, 0.0, 0.0, 0.0, 0.0, 0.0, 0.0, 0.0, 0.0, 0.0, 1.740938135771246E9, 0.0, 2025-03-02 19:55:35.771
68.0, 22216.605808330278, 13082.386622713402, 0.0, 0.0, 0.0, 0.0, 0.0, 18921.176364562078, 0.036000000000000004, -0.018000000000000002, 0.996, 192.0, 0.0, 0.0, 0.0, 0.0, 0.0, 0.0, 0.0, 0.0, 0.0, 1.740938135771267E9, 0.0, 2025-03-02 19:55:35.771
69.0, 22091.86072252521, 12822.413482953727, 0.0, 0.0, 0.0, 0.0, 0.0, 19402.677643618303, 0.036000000000000004, -0.018000000000000002, 0.996, 192.0, 0.0, 0.0, 0.0, 0.0, 0.0, 0.0, 0.0, 0.0, 0.0, 1.740938135771288E9, 0.0, 2025-03-02 19:55:35.771
70.0, 22099.437963895558, 12749.502092540515, 0.0, 0.0, 0.0, 0.0, 0.0, 18956.80504522384, 0.036000000000000004, -0.018000000000000002, 0.996, 192.0, 0.0, 0.0, 0.0, 0.0, 0.0, 0.0, 0.0, 0.0, 0.0, 1.740938135771309E9, 0.0, 2025-03-02 19:55:35.771
71.0, 22221.791413043906, 12722.903516638698, 0.0, 0.0, 0.0, 0.0, 0.0, 16540.02267599376, 0.036000000000000004, -0.018000000000000002, 0.996, 192.0, 0.0, 0.0, 0.0, 0.0, 0.0, 0.0, 0.0, 0.0, 0.0, 1.74093813577133E9, 0.0, 2025-03-02 19:55:35.771
72.0, 22366.027220014003, 12989.85040066843, 0.0, 0.0, 0.0, 0.0, 0.0, 15376.726135817307, 0.036000000000000004, -0.018000000000000002, 0.996, 192.0, 0.0, 0.0, 0.0, 0.0, 0.0, 0.0, 0.0, 0.0, 0.0, 1.740938135771351E9, 0.0, 2025-03-02 19:55:35.771
73.0, 22215.130593196227, 13103.464317734757, 0.0, 0.0, 0.0, 0.0, 0.0, 18885.391221689133, 0.036000000000000004, -0.018000000000000002, 0.996, 192.0, 0.0, 0.0, 0.0, 0.0, 0.0, 0.0, 0.0, 0.0, 0.0, 1.740938135771372E9, 0.0, 2025-03-02 19:55:35.771
74.0, 22090.452562624523, 12838.909070361742, 0.0, 0.0, 0.0, 0.0, 0.0, 19401.381242439897, 0.036000000000000004, -0.018000000000000002, 0.996, 192.0, 0.0, 0.0, 0.0, 0.0, 0.0, 0.0, 0.0, 0.0, 0.0, 1.740938135771393E9, 0.0, 2025-03-02 19:55:35.771
75.0, 22096.778106305374, 12766.221197393084, 0.0, 0.0, 0.0, 0.0, 0.0, 18952.580565521785, 0.034, -0.018000000000000002, 0.996, 192.0, 1.0, 16.0, 255.0, 112.0, 31.0, 32.0, 0.0, 0.0, 0.0, 1.74093813583139E9, 0.0, 2025-03-02 19:55:35.831
76.0, 22224.40656714518, 12728.022066118965, 0.0, 0.0, 0.0, 0.0, 0.0, 16580.70285090242, 0.034, -0.018000000000000002, 0.996, 192.0, 0.0, 0.0, 0.0, 0.0, 0.0, 0.0, 0.0, 0.0, 0.0, 1.74093813583145E9, 0.0, 2025-03-02 19:55:35.831
77.0, 22379.639432387285, 12968.057449824508, 0.0, 0.0, 0.0, 0.0, 0.0, 15386.359737677543, 0.034, -0.018000000000000002, 0.996, 192.0, 0.0, 0.0, 0.0, 0.0, 0.0, 0.0, 0.0, 0.0, 0.0, 1.740938135831475E9, 0.0, 2025-03-02 19:55:35.831
78.0, 22221.59024734381, 13081.067869790539, 0.0, 0.0, 0.0, 0.0, 0.0, 18868.82857904775, 0.034, -0.018000000000000002, 0.996, 192.0, 0.0, 0.0, 0.0, 0.0, 0.0, 0.0, 0.0, 0.0, 0.0, 1.740938135831499E9, 0.0, 2025-03-02 19:55:35.831
79.0, 22095.593463849244, 12831.085959802385, 0.0, 0.0, 0.0, 0.0, 0.0, 19394.385146425386, 0.034, -0.018000000000000002, 0.996, 192.0, 0.0, 0.0, 0.0, 0.0, 0.0, 0.0, 0.0, 0.0, 0.0, 1.740938135831523E9, 0.0, 2025-03-02 19:55:35.831
80.0, 22097.336899916758, 12771.853836995822, 0.0, 0.0, 0.0, 0.0, 0.0, 18938.029579881382, 0.034, -0.018000000000000002, 0.996, 192.0, 0.0, 0.0, 0.0, 0.0, 0.0, 0.0, 0.0, 0.0, 0.0, 1.740938135831545E9, 0.0, 2025-03-02 19:55:35.831
81.0, 22222.14904095519, 12731.933621398643, 0.0, 0.0, 0.0, 0.0, 0.0, 16604.663920958512, 0.034, -0.018000000000000002, 0.996, 192.0, 0.0, 0.0, 0.0, 0.0, 0.0, 0.0, 0.0, 0.0, 0.0, 1.740938135831568E9, 0.0, 2025-03-02 19:55:35.831
82.0, 22383.57333941142, 12989.448069268235, 0.0, 0.0, 0.0, 0.0, 0.0, 15386.00210976626, 0.034, -0.018000000000000002, 0.996, 192.0, 0.0, 0.0, 0.0, 0.0, 0.0, 0.0, 0.0, 0.0, 0.0, 1.740938135831592E9, 0.0, 2025-03-02 19:55:35.831
83.0, 22230.30742768138, 13109.633399204422, 0.0, 0.0, 0.0, 0.0, 0.0, 18853.53998584032, 0.034, -0.018000000000000002, 0.996, 192.0, 0.0, 0.0, 0.0, 0.0, 0.0, 0.0, 0.0, 0.0, 0.0, 1.740938135831692E9, 0.0, 2025-03-02 19:55:35.831
84.0, 22101.024937751885, 12848.609727455347, 0.0, 0.0, 0.0, 0.0, 0.0, 19424.962332840245, 0.034, -0.016, 0.992, 192.0, 1.0, 16.0, 255.0, 128.0, 31.0, 0.0, 0.0, 0.0, 0.0, 1.740938135831715E9, 0.0, 2025-03-02 19:55:35.831
85.0, 22093.827676037276, 12771.33974687335, 0.0, 0.0, 0.0, 0.0, 0.0, 18974.351164621254, 0.034, -0.016, 0.992, 192.0, 0.0, 0.0, 0.0, 0.0, 0.0, 0.0, 0.0, 0.0, 0.0, 1.740938135831739E9, 0.0, 2025-03-02 19:55:35.831
86.0, 22218.326892653335, 12740.919022669677, 0.0, 0.0, 0.0, 0.0, 0.0, 16645.411151100536, 0.034, -0.016, 0.992, 192.0, 0.0, 0.0, 0.0, 0.0, 0.0, 0.0, 0.0, 0.0, 0.0, 1.740938135831761E9, 0.0, 2025-03-02 19:55:35.831
87.0, 22383.774505111516, 12992.398499536337, 0.0, 0.0, 0.0, 0.0, 0.0, 15379.18482770739, 0.034, -0.016, 0.992, 192.0, 0.0, 0.0, 0.0, 0.0, 0.0, 0.0, 0.0, 0.0, 0.0, 1.740938135831783E9, 0.0, 2025-03-02 19:55:35.831
88.0, 22238.711683596575, 13115.869535907452, 0.0, 0.0, 0.0, 0.0, 0.0, 18846.901517737093, 0.034, -0.016, 0.992, 192.0, 0.0, 0.0, 0.0, 0.0, 0.0, 0.0, 0.0, 0.0, 0.0, 1.740938135831806E9, 0.0, 2025-03-02 19:55:35.831
89.0, 22106.81403956581, 12864.479466018614, 0.0, 0.0, 0.0, 0.0, 0.0, 19431.13141430991, 0.034, -0.016, 0.992, 192.0, 0.0, 0.0, 0.0, 0.0, 0.0, 0.0, 0.0, 0.0, 0.0, 1.740938135831828E9, 0.0, 2025-03-02 19:55:35.831
90.0, 22096.93456851656, 12787.991796492553, 0.0, 0.0, 0.0, 0.0, 0.0, 18967.89151047367, 0.034, -0.016, 0.992, 192.0, 0.0, 0.0, 0.0, 0.0, 0.0, 0.0, 0.0, 0.0, 0.0, 1.740938135891705E9, 0.0, 2025-03-02 19:55:35.891
91.0, 22214.638854818208, 12749.122112884774, 0.0, 0.0, 0.0, 0.0, 0.0, 16652.898985493062, 0.034, -0.016, 0.992, 192.0, 0.0, 0.0, 0.0, 0.0, 0.0, 0.0, 0.0, 0.0, 0.0, 1.740938135891778E9, 0.0, 2025-03-02 19:55:35.891
92.0, 22373.515054406533, 12984.106002343417, 0.0, 0.0, 0.0, 0.0, 0.0, 15321.427920034877, 0.034, -0.016, 0.992, 192.0, 0.0, 0.0, 0.0, 0.0, 0.0, 0.0, 0.0, 0.0, 0.0, 1.74093813589182E9, 0.0, 2025-03-02 19:55:35.891
93.0, 22221.031453732427, 13099.418651988346, 0.0, 0.0, 0.0, 0.0, 0.0, 18796.54303747929, 0.034, -0.016, 0.992, 192.0, 0.0, 0.0, 0.0, 0.0, 0.0, 0.0, 0.0, 0.0, 0.0, 1.74093813589186E9, 0.0, 2025-03-02 19:55:35.891
94.0, 22079.23198690796, 12836.852709871855, 0.0, 0.0, 0.0, 0.0, 0.0, 19409.494925677172, 0.032, -0.018000000000000002, 0.992, 192.0, 1.0, 0.0, 255.0, 112.0, 31.0, 0.0, 0.0, 0.0, 0.0, 1.740938135891899E9, 0.0, 2025-03-02 19:55:35.891
95.0, 22082.80826602081, 12769.216331150095, 0.0, 0.0, 0.0, 0.0, 0.0, 18943.617515995207, 0.032, -0.018000000000000002, 0.992, 192.0, 0.0, 0.0, 0.0, 0.0, 0.0, 0.0, 0.0, 0.0, 0.0, 1.740938135891939E9, 0.0, 2025-03-02 19:55:35.891
96.0, 22220.11503220976, 12740.404932547204, 0.0, 0.0, 0.0, 0.0, 0.0, 16668.50050312287, 0.032, -0.018000000000000002, 0.992, 192.0, 0.0, 0.0, 0.0, 0.0, 0.0, 0.0, 0.0, 0.0, 0.0, 1.740938135891979E9, 0.0, 2025-03-02 19:55:35.891
97.0, 22381.338164965888, 12969.487961469647, 0.0, 0.0, 0.0, 0.0, 0.0, 15334.369580074499, 0.032, -0.018000000000000002, 0.992, 192.0, 0.0, 0.0, 0.0, 0.0, 0.0, 0.0, 0.0, 0.0, 0.0, 1.740938135892022E9, 0.0, 2025-03-02 19:55:35.892
98.0, 22222.461965377566, 13086.812268115553, 0.0, 0.0, 0.0, 0.0, 0.0, 18780.583891938197, 0.032, -0.018000000000000002, 0.992, 192.0, 0.0, 0.0, 0.0, 0.0, 0.0, 0.0, 0.0, 0.0, 0.0, 1.74093813589209E9, 0.0, 2025-03-02 19:55:35.892
99.0, 22079.366097374692, 12829.29782024596, 0.0, 0.0, 0.0, 0.0, 0.0, 19421.22959151621, 0.032, -0.018000000000000002, 0.992, 192.0, 0.0, 0.0, 0.0, 0.0, 0.0, 0.0, 0.0, 0.0, 0.0, 1.740938135892156E9, 0.0, 2025-03-02 19:55:35.892
100.0, 22077.84617875173, 12753.950089687121, 0.0, 0.0, 0.0, 0.0, 0.0, 18953.161710877623, 0.032, -0.018000000000000002, 0.992, 192.0, 0.0, 0.0, 0.0, 0.0, 0.0, 0.0, 0.0, 0.0, 0.0, 1.740938135892282E9, 0.0, 2025-03-02 19:55:35.892
101.0, 22194.187008641602, 12724.982228873043, 0.0, 0.0, 0.0, 0.0, 0.0, 16703.92801808453, 0.032, -0.018000000000000002, 0.992, 192.0, 0.0, 0.0, 0.0, 0.0, 0.0, 0.0, 0.0, 0.0, 0.0, 1.740938135892307E9, 0.0, 2025-03-02 19:55:35.892
102.0, 22355.074865230905, 12966.001089334619, 0.0, 0.0, 0.0, 0.0, 0.0, 15328.803995705128, 0.032, -0.018000000000000002, 0.992, 192.0, 0.0, 0.0, 0.0, 0.0, 0.0, 0.0, 0.0, 0.0, 0.0, 1.740938135892329E9, 0.0, 2025-03-02 19:55:35.892
103.0, 22217.58928508631, 13088.622759416434, 0.0, 0.0, 0.0, 0.0, 0.0, 18771.84435985617, 0.032, -0.018000000000000002, 0.992, 192.0, 0.0, 0.0, 0.0, 0.0, 0.0, 0.0, 0.0, 0.0, 0.0, 1.740938135892353E9, 0.0, 2025-03-02 19:55:35.892
104.0, 22085.89280675564, 12829.141358034774, 0.0, 0.0, 0.0, 0.0, 0.0, 19421.140184538388, 0.03, -0.018000000000000002, 0.99, 192.0, 0.0, 240.0, 255.0, 112.0, 30.0, 240.0, 0.0, 0.0, 0.0, 1.740938135892375E9, 0.0, 2025-03-02 19:55:35.892
105.0, 22081.690678798044, 12755.268842609983, 0.0, 0.0, 0.0, 0.0, 0.0, 18957.810873724327, 0.03, -0.018000000000000002, 0.99, 192.0, 0.0, 0.0, 0.0, 0.0, 0.0, 0.0, 0.0, 0.0, 0.0, 1.740938135951807E9, 0.0, 2025-03-02 19:55:35.951
106.0, 22189.716659750542, 12713.359321756283, 0.0, 0.0, 0.0, 0.0, 0.0, 16752.654820997097, 0.03, -0.018000000000000002, 0.99, 192.0, 0.0, 0.0, 0.0, 0.0, 0.0, 0.0, 0.0, 0.0, 0.0, 1.740938135951876E9, 0.0, 2025-03-02 19:55:35.951
107.0, 22358.069998987914, 12957.596833419424, 0.0, 0.0, 0.0, 0.0, 0.0, 15337.185899875869, 0.03, -0.018000000000000002, 0.99, 192.0, 0.0, 0.0, 0.0, 0.0, 0.0, 0.0, 0.0, 0.0, 0.0, 1.740938135951926E9, 0.0, 2025-03-02 19:55:35.951
108.0, 22220.830288032328, 13081.134925023905, 0.0, 0.0, 0.0, 0.0, 0.0, 18768.111618532137, 0.03, -0.018000000000000002, 0.99, 192.0, 0.0, 0.0, 0.0, 0.0, 0.0, 0.0, 0.0, 0.0, 0.0, 1.740938135951975E9, 0.0, 2025-03-02 19:55:35.951
109.0, 22082.98707997645, 12826.168576022217, 0.0, 0.0, 0.0, 0.0, 0.0, 19428.60566718646, 0.03, -0.018000000000000002, 0.99, 192.0, 0.0, 0.0, 0.0, 0.0, 0.0, 0.0, 0.0, 0.0, 0.0, 1.74093813595202E9, 0.0, 2025-03-02 19:55:35.952
110.0, 22077.26503339589, 12752.698391997623, 0.0, 0.0, 0.0, 0.0, 0.0, 18961.23069062599, 0.03, -0.018000000000000002, 0.99, 192.0, 0.0, 0.0, 0.0, 0.0, 0.0, 0.0, 0.0, 0.0, 0.0, 1.740938135952054E9, 0.0, 2025-03-02 19:55:35.952
111.0, 22192.041241173894, 12714.387502001227, 0.0, 0.0, 0.0, 0.0, 0.0, 16769.575091549767, 0.03, -0.018000000000000002, 0.99, 192.0, 0.0, 0.0, 0.0, 0.0, 0.0, 0.0, 0.0, 0.0, 0.0, 1.740938135952094E9, 0.0, 2025-03-02 19:55:35.952
112.0, 22352.213841940626, 12953.774685117565, 0.0, 0.0, 0.0, 0.0, 0.0, 15333.140234129458, 0.03, -0.018000000000000002, 0.99, 192.0, 0.0, 0.0, 0.0, 0.0, 0.0, 0.0, 0.0, 0.0, 0.0, 1.740938135952135E9, 0.0, 2025-03-02 19:55:35.952
113.0, 22217.3434158973, 13093.5401431966, 0.0, 0.0, 0.0, 0.0, 0.0, 18757.785112593785, 0.03, -0.018000000000000002, 0.99, 192.0, 0.0, 0.0, 0.0, 0.0, 0.0, 0.0, 0.0, 0.0, 0.0, 1.74093813595218E9, 0.0, 2025-03-02 19:55:35.952
114.0, 22077.712068284996, 12819.619514896813, 0.0, 0.0, 0.0, 0.0, 0.0, 19444.251888305174, 0.034, -0.022, 0.986, 192.0, 1.0, 16.0, 255.0, 80.0, 30.0, 208.0, 0.0, 0.0, 0.0, 1.740938135952237E9, 0.0, 2025-03-02 19:55:35.952
115.0, 22070.291289125835, 12727.887955652233, 0.0, 0.0, 0.0, 0.0, 0.0, 18949.674838742594, 0.034, -0.022, 0.986, 192.0, 0.0, 0.0, 0.0, 0.0, 0.0, 0.0, 0.0, 0.0, 0.0, 1.740938135952289E9, 0.0, 2025-03-02 19:55:35.952
116.0, 22187.77205798293, 12701.244676261507, 0.0, 0.0, 0.0, 0.0, 0.0, 16749.637335495634, 0.034, -0.022, 0.986, 192.0, 0.0, 0.0, 0.0, 0.0, 0.0, 0.0, 0.0, 0.0, 0.0, 1.740938135952335E9, 0.0, 2025-03-02 19:55:35.952
117.0, 22361.445112400666, 12943.202309990205, 0.0, 0.0, 0.0, 0.0, 0.0, 15280.680689892852, 0.034, -0.022, 0.986, 192.0, 0.0, 0.0, 0.0, 0.0, 0.0, 0.0, 0.0, 0.0, 0.0, 1.740938135952437E9, 0.0, 2025-03-02 19:55:35.952
118.0, 22226.06059623487, 13087.438116960302, 0.0, 0.0, 0.0, 0.0, 0.0, 18716.724958029386, 0.034, -0.022, 0.986, 192.0, 0.0, 0.0, 0.0, 0.0, 0.0, 0.0, 0.0, 0.0, 0.0, 1.740938135952474E9, 0.0, 2025-03-02 19:55:35.952
119.0, 22095.392298149145, 12821.385302708783, 0.0, 0.0, 0.0, 0.0, 0.0, 19423.062434561543, 0.034, -0.022, 0.986, 192.0, 0.0, 0.0, 0.0, 0.0, 0.0, 0.0, 0.0, 0.0, 0.0, 1.740938135952511E9, 0.0, 2025-03-02 19:55:35.952
120.0, 22095.36994640469, 12742.260127336995, 0.0, 0.0, 0.0, 0.0, 0.0, 18949.540728275864, 0.034, -0.022, 0.986, 192.0, 0.0, 0.0, 0.0, 0.0, 0.0, 0.0, 0.0, 0.0, 0.0, 1.740938136011086E9, 0.0, 2025-03-02 19:55:36.011
121.0, 22204.960549469062, 12710.297132765905, 0.0, 0.0, 0.0, 0.0, 0.0, 16804.577923366778, 0.034, -0.022, 0.986, 192.0, 0.0, 0.0, 0.0, 0.0, 0.0, 0.0, 0.0, 0.0, 0.0, 1.740938136011154E9, 0.0, 2025-03-02 19:55:36.011
122.0, 22374.00679278455, 12944.409304190793, 0.0, 0.0, 0.0, 0.0, 0.0, 15270.488294421231, 0.034, -0.022, 0.986, 192.0, 0.0, 0.0, 0.0, 0.0, 0.0, 0.0, 0.0, 0.0, 0.0, 1.740938136011197E9, 0.0, 2025-03-02 19:55:36.011
123.0, 22248.099416267803, 13091.170858284338, 0.0, 0.0, 0.0, 0.0, 0.0, 18692.31685308419, 0.034, -0.022, 0.99, 192.0, 1.0, 16.0, 255.0, 80.0, 30.0, 240.0, 0.0, 0.0, 0.0, 1.740938136011255E9, 0.0, 2025-03-02 19:55:36.011
124.0, 22101.85195229673, 12842.77592215251, 0.0, 0.0, 0.0, 0.0, 0.0, 19444.631867960914, 0.034, -0.022, 0.99, 192.0, 0.0, 0.0, 0.0, 0.0, 0.0, 0.0, 0.0, 0.0, 0.0, 1.740938136011309E9, 0.0, 2025-03-02 19:55:36.011
125.0, 22089.022050979383, 12759.828598478867, 0.0, 0.0, 0.0, 0.0, 0.0, 18947.439664297064, 0.034, -0.022, 0.99, 192.0, 0.0, 0.0, 0.0, 0.0, 0.0, 0.0, 0.0, 0.0, 0.0, 1.740938136011352E9, 0.0, 2025-03-02 19:55:36.011
126.0, 22202.25598838997, 12720.355417770794, 0.0, 0.0, 0.0, 0.0, 0.0, 16808.13185073517, 0.034, -0.022, 0.99, 192.0, 0.0, 0.0, 0.0, 0.0, 0.0, 0.0, 0.0, 0.0, 0.0, 1.740938136011389E9, 0.0, 2025-03-02 19:55:36.011
127.0, 22373.71622010663, 12942.017667534074, 0.0, 0.0, 0.0, 0.0, 0.0, 15264.20745422929, 0.034, -0.022, 0.99, 192.0, 0.0, 0.0, 0.0, 0.0, 0.0, 0.0, 0.0, 0.0, 0.0, 1.740938136011425E9, 0.0, 2025-03-02 19:55:36.011
128.0, 22242.042093520417, 13084.264169247648, 0.0, 0.0, 0.0, 0.0, 0.0, 18666.4558847494, 0.034, -0.022, 0.99, 192.0, 0.0, 0.0, 0.0, 0.0, 0.0, 0.0, 0.0, 0.0, 0.0, 1.740938136011465E9, 0.0, 2025-03-02 19:55:36.011
129.0, 22104.75767907592, 12835.802177882455, 0.0, 0.0, 0.0, 0.0, 0.0, 19416.491021691683, 0.034, -0.022, 0.99, 192.0, 0.0, 0.0, 0.0, 0.0, 0.0, 0.0, 0.0, 0.0, 0.0, 1.740938136011502E9, 0.0, 2025-03-02 19:55:36.011
130.0, 22103.885961042164, 12757.883996711254, 0.0, 0.0, 0.0, 0.0, 0.0, 18911.989797590948, 0.034, -0.022, 0.99, 192.0, 0.0, 0.0, 0.0, 0.0, 0.0, 0.0, 0.0, 0.0, 0.0, 1.74093813601154E9, 0.0, 2025-03-02 19:55:36.011
131.0, 22211.956645483573, 12723.931696883643, 0.0, 0.0, 0.0, 0.0, 0.0, 16801.672196587588, 0.034, -0.022, 0.99, 192.0, 0.0, 0.0, 0.0, 0.0, 0.0, 0.0, 0.0, 0.0, 0.0, 1.740938136011581E9, 0.0, 2025-03-02 19:55:36.011
132.0, 22383.796856855974, 12955.18284501825, 0.0, 0.0, 0.0, 0.0, 0.0, 15207.814002968551, 0.034, -0.022, 0.99, 192.0, 0.0, 0.0, 0.0, 0.0, 0.0, 0.0, 0.0, 0.0, 0.0, 1.740938136011619E9, 0.0, 2025-03-02 19:55:36.011
133.0, 22265.779646131952, 13100.178611299827, 0.0, 0.0, 0.0, 0.0, 0.0, 18594.527971092222, 0.038, -0.024, 0.99, 192.0, 1.0, 48.0, 255.0, 64.0, 30.0, 240.0, 0.0, 0.0, 0.0, 1.74093813601166E9, 0.0, 2025-03-02 19:55:36.011
134.0, 22117.788746093363, 12848.900300133266, 0.0, 0.0, 0.0, 0.0, 0.0, 19374.201521182244, 0.038, -0.024, 0.99, 192.0, 0.0, 0.0, 0.0, 0.0, 0.0, 0.0, 0.0, 0.0, 0.0, 1.740938136011761E9, 0.0, 2025-03-02 19:55:36.011
135.0, 22106.05408025433, 12765.260072381507, 0.0, 0.0, 0.0, 0.0, 0.0, 18859.105570209693, 0.038, -0.024, 0.99, 192.0, 0.0, 0.0, 0.0, 0.0, 0.0, 0.0, 0.0, 0.0, 0.0, 1.740938136070955E9, 0.0, 2025-03-02 19:55:36.070
136.0, 22209.296787893392, 12723.194089316617, 0.0, 0.0, 0.0, 0.0, 0.0, 16740.36136154668, 0.038, -0.024, 0.99, 192.0, 0.0, 0.0, 0.0, 0.0, 0.0, 0.0, 0.0, 0.0, 0.0, 1.740938136071014E9, 0.0, 2025-03-02 19:55:36.071
137.0, 22382.27693823301, 12939.000182032607, 0.0, 0.0, 0.0, 0.0, 0.0, 15092.210780645702, 0.038, -0.024, 0.99, 192.0, 0.0, 0.0, 0.0, 0.0, 0.0, 0.0, 0.0, 0.0, 0.0, 1.740938136071054E9, 0.0, 2025-03-02 19:55:36.071
138.0, 22258.895308839717, 13107.621742203444, 0.0, 0.0, 0.0, 0.0, 0.0, 18522.354188246034, 0.038, -0.024, 0.99, 192.0, 0.0, 0.0, 0.0, 0.0, 0.0, 0.0, 0.0, 0.0, 0.0, 1.740938136071093E9, 0.0, 2025-03-02 19:55:36.071
139.0, 22114.547743147345, 12847.045105343475, 0.0, 0.0, 0.0, 0.0, 0.0, 19357.147140162844, 0.038, -0.024, 0.99, 192.0, 0.0, 0.0, 0.0, 0.0, 0.0, 0.0, 0.0, 0.0, 0.0, 1.740938136071131E9, 0.0, 2025-03-02 19:55:36.071
140.0, 22099.482667384465, 12744.316487826884, 0.0, 0.0, 0.0, 0.0, 0.0, 18837.849061232693, 0.038, -0.024, 0.99, 192.0, 0.0, 0.0, 0.0, 0.0, 0.0, 0.0, 0.0, 0.0, 0.0, 1.74093813607117E9, 0.0, 2025-03-02 19:55:36.071
141.0, 22203.284168634913, 12707.860792620277, 0.0, 0.0, 0.0, 0.0, 0.0, 16749.03383839534, 0.038, -0.024, 0.99, 192.0, 0.0, 0.0, 0.0, 0.0, 0.0, 0.0, 0.0, 0.0, 0.0, 1.740938136071221E9, 0.0, 2025-03-02 19:55:36.071
142.0, 22390.077697047913, 12940.162472744283, 0.0, 0.0, 0.0, 0.0, 0.0, 15065.858073932895, 0.038, -0.024, 0.99, 192.0, 0.0, 0.0, 0.0, 0.0, 0.0, 0.0, 0.0, 0.0, 0.0, 1.740938136071261E9, 0.0, 2025-03-02 19:55:36.071
143.0, 22261.3540007298, 13091.170858284338, 0.0, 0.0, 0.0, 0.0, 0.0, 18449.196928643814, 0.038, -0.026000000000000002, 0.988, 192.0, 1.0, 48.0, 255.0, 48.0, 30.0, 224.0, 0.0, 0.0, 0.0, 1.740938136071326E9, 0.0, 2025-03-02 19:55:36.071
144.0, 22114.346577447246, 12848.654430944256, 0.0, 0.0, 0.0, 0.0, 0.0, 19315.617598964884, 0.038, -0.026000000000000002, 0.988, 192.0, 0.0, 0.0, 0.0, 0.0, 0.0, 0.0, 0.0, 0.0, 0.0, 1.740938136071368E9, 0.0, 2025-03-02 19:55:36.071
145.0, 22103.32716743078, 12761.862607224299, 0.0, 0.0, 0.0, 0.0, 0.0, 18804.701424205476, 0.038, -0.026000000000000002, 0.988, 192.0, 0.0, 0.0, 0.0, 0.0, 0.0, 0.0, 0.0, 0.0, 0.0, 1.740938136071414E9, 0.0, 2025-03-02 19:55:36.071
146.0, 22199.417316844145, 12707.32435075335, 0.0, 0.0, 0.0, 0.0, 0.0, 16736.74037894492, 0.038, -0.026000000000000002, 0.988, 192.0, 0.0, 0.0, 0.0, 0.0, 0.0, 0.0, 0.0, 0.0, 0.0, 1.740938136071474E9, 0.0, 2025-03-02 19:55:36.071
147.0, 22379.080638775904, 12927.958420271687, 0.0, 0.0, 0.0, 0.0, 0.0, 15029.73765489312, 0.038, -0.026000000000000002, 0.988, 192.0, 0.0, 0.0, 0.0, 0.0, 0.0, 0.0, 0.0, 0.0, 0.0, 1.740938136071499E9, 0.0, 2025-03-02 19:55:36.071
148.0, 22258.224756506057, 13091.93081759582, 0.0, 0.0, 0.0, 0.0, 0.0, 18432.231954602237, 0.038, -0.026000000000000002, 0.988, 192.0, 0.0, 0.0, 0.0, 0.0, 0.0, 0.0, 0.0, 0.0, 0.0, 1.74093813607154E9, 0.0, 2025-03-02 19:55:36.071
149.0, 22120.023920538893, 12831.421235969216, 0.0, 0.0, 0.0, 0.0, 0.0, 19319.171526333277, 0.038, -0.026000000000000002, 0.988, 192.0, 0.0, 0.0, 0.0, 0.0, 0.0, 0.0, 0.0, 0.0, 0.0, 1.740938136071581E9, 0.0, 2025-03-02 19:55:36.071
150.0, 22111.060871012316, 12734.258202821995, 0.0, 0.0, 0.0, 0.0, 0.0, 18795.11252583415, 0.038, -0.026000000000000002, 0.988, 192.0, 0.0, 0.0, 0.0, 0.0, 0.0, 0.0, 0.0, 0.0, 0.0, 1.74093813613123E9, 0.0, 2025-03-02 19:55:36.131
151.0, 22209.095622193294, 12702.831650117834, 0.0, 0.0, 0.0, 0.0, 0.0, 16753.817111708773, 0.038, -0.026000000000000002, 0.988, 192.0, 0.0, 0.0, 0.0, 0.0, 0.0, 0.0, 0.0, 0.0, 0.0, 1.740938136131352E9, 0.0, 2025-03-02 19:55:36.131
152.0, 22380.600557398862, 12910.12172819635, 0.0, 0.0, 0.0, 0.0, 0.0, 15003.787279580509, 0.038, -0.026000000000000002, 0.988, 192.0, 0.0, 0.0, 0.0, 0.0, 0.0, 0.0, 0.0, 0.0, 0.0, 1.740938136131395E9, 0.0, 2025-03-02 19:55:36.131
153.0, 22256.43661694963, 13069.48966616269, 0.0, 0.0, 0.0, 0.0, 0.0, 18401.319492020546, 0.032, -0.02, 0.988, 192.0, 1.0, 0.0, 255.0, 96.0, 30.0, 224.0, 0.0, 0.0, 0.0, 1.740938136131418E9, 0.0, 2025-03-02 19:55:36.131
154.0, 22110.926760545586, 12824.693360888168, 0.0, 0.0, 0.0, 0.0, 0.0, 19322.144308345833, 0.032, -0.02, 0.988, 192.0, 0.0, 0.0, 0.0, 0.0, 0.0, 0.0, 0.0, 0.0, 0.0, 1.74093813613144E9, 0.0, 2025-03-02 19:55:36.131
155.0, 22103.19305696405, 12738.549737757414, 0.0, 0.0, 0.0, 0.0, 0.0, 18795.5372089788, 0.032, -0.02, 0.988, 192.0, 0.0, 0.0, 0.0, 0.0, 0.0, 0.0, 0.0, 0.0, 0.0, 1.740938136131462E9, 0.0, 2025-03-02 19:55:36.131
156.0, 22201.898360478684, 12690.56054241187, 0.0, 0.0, 0.0, 0.0, 0.0, 16763.09308565773, 0.032, -0.02, 0.988, 192.0, 0.0, 0.0, 0.0, 0.0, 0.0, 0.0, 0.0, 0.0, 0.0, 1.740938136131483E9, 0.0, 2025-03-02 19:55:36.131
157.0, 22381.136999265793, 12901.963341470164, 0.0, 0.0, 0.0, 0.0, 0.0, 14987.515209617044, 0.032, -0.02, 0.988, 192.0, 0.0, 0.0, 0.0, 0.0, 0.0, 0.0, 0.0, 0.0, 0.0, 1.740938136131504E9, 0.0, 2025-03-02 19:55:36.131
158.0, 22265.712590898587, 13073.40122144237, 0.0, 0.0, 0.0, 0.0, 0.0, 18388.467238958747, 0.032, -0.02, 0.988, 192.0, 0.0, 0.0, 0.0, 0.0, 0.0, 0.0, 0.0, 0.0, 0.0, 1.740938136131525E9, 0.0, 2025-03-02 19:55:36.131
159.0, 22114.167763491605, 12822.100558531352, 0.0, 0.0, 0.0, 0.0, 0.0, 19313.136555330344, 0.032, -0.02, 0.988, 192.0, 0.0, 0.0, 0.0, 0.0, 0.0, 0.0, 0.0, 0.0, 0.0, 1.740938136131546E9, 0.0, 2025-03-02 19:55:36.131
160.0, 22112.312568701815, 12734.481720266549, 0.0, 0.0, 0.0, 0.0, 0.0, 18769.229205754902, 0.032, -0.02, 0.988, 192.0, 0.0, 0.0, 0.0, 0.0, 0.0, 0.0, 0.0, 0.0, 0.0, 1.740938136131567E9, 0.0, 2025-03-02 19:55:36.131
161.0, 22204.602921557776, 12697.46723144856, 0.0, 0.0, 0.0, 0.0, 0.0, 16786.5624173358, 0.032, -0.02, 0.988, 192.0, 0.0, 0.0, 0.0, 0.0, 0.0, 0.0, 0.0, 0.0, 0.0, 1.740938136131588E9, 0.0, 2025-03-02 19:55:36.131
162.0, 22377.672478875218, 12898.275303635039, 0.0, 0.0, 0.0, 0.0, 0.0, 14978.328642645913, 0.032, -0.02, 0.988, 192.0, 0.0, 0.0, 0.0, 0.0, 0.0, 0.0, 0.0, 0.0, 0.0, 1.740938136131609E9, 0.0, 2025-03-02 19:55:36.131
163.0, 22258.49297743952, 13061.040706758584, 0.0, 0.0, 0.0, 0.0, 0.0, 18358.359439177446, 0.03, -0.02, 0.988, 192.0, 0.0, 240.0, 255.0, 96.0, 30.0, 224.0, 0.0, 0.0, 0.0, 1.74093813613163E9, 0.0, 2025-03-02 19:55:36.131
164.0, 22112.111403001716, 12821.362950964327, 0.0, 0.0, 0.0, 0.0, 0.0, 19333.431939295762, 0.03, -0.02, 0.988, 192.0, 0.0, 0.0, 0.0, 0.0, 0.0, 0.0, 0.0, 0.0, 0.0, 1.740938136131652E9, 0.0, 2025-03-02 19:55:36.131
165.0, 22101.56137961881, 12734.884051666744, 0.0, 0.0, 0.0, 0.0, 0.0, 18792.877351388615, 0.03, -0.02, 0.988, 192.0, 0.0, 0.0, 0.0, 0.0, 0.0, 0.0, 0.0, 0.0, 0.0, 1.740938136191597E9, 0.0, 2025-03-02 19:55:36.191
166.0, 22195.751630753475, 12692.706309879579, 0.0, 0.0, 0.0, 0.0, 0.0, 16806.03078675637, 0.03, -0.02, 0.988, 192.0, 0.0, 0.0, 0.0, 0.0, 0.0, 0.0, 0.0, 0.0, 0.0, 1.740938136191642E9, 0.0, 2025-03-02 19:55:36.191
167.0, 22380.935833565694, 12908.110071195373, 0.0, 0.0, 0.0, 0.0, 0.0, 14968.471523341123, 0.03, -0.02, 0.988, 192.0, 0.0, 0.0, 0.0, 0.0, 0.0, 0.0, 0.0, 0.0, 0.0, 1.740938136191731E9, 0.0, 2025-03-02 19:55:36.191
168.0, 22267.880710110752, 13068.819113829031, 0.0, 0.0, 0.0, 0.0, 0.0, 18341.036837224583, 0.03, -0.02, 0.988, 192.0, 0.0, 0.0, 0.0, 0.0, 0.0, 0.0, 0.0, 0.0, 0.0, 1.740938136191755E9, 0.0, 2025-03-02 19:55:36.191
169.0, 22121.968522306506, 12817.741968362567, 0.0, 0.0, 0.0, 0.0, 0.0, 19319.931485644756, 0.03, -0.02, 0.988, 192.0, 0.0, 0.0, 0.0, 0.0, 0.0, 0.0, 0.0, 0.0, 0.0, 1.740938136191777E9, 0.0, 2025-03-02 19:55:36.191
170.0, 22105.316472687304, 12727.016237618476, 0.0, 0.0, 0.0, 0.0, 0.0, 18795.47015374543, 0.03, -0.02, 0.988, 192.0, 0.0, 0.0, 0.0, 0.0, 0.0, 0.0, 0.0, 0.0, 0.0, 1.740938136191799E9, 0.0, 2025-03-02 19:55:36.191
171.0, 22190.186046384104, 12696.439051203615, 0.0, 0.0, 0.0, 0.0, 0.0, 16848.700266921554, 0.03, -0.02, 0.988, 192.0, 0.0, 0.0, 0.0, 0.0, 0.0, 0.0, 0.0, 0.0, 0.0, 1.74093813619182E9, 0.0, 2025-03-02 19:55:36.191
172.0, 22377.851292830863, 12911.03814971902, 0.0, 0.0, 0.0, 0.0, 0.0, 14966.437514595691, 0.034, -0.024, 0.996, 192.0, 1.0, 16.0, 255.0, 64.0, 31.0, 32.0, 0.0, 0.0, 0.0, 1.740938136191842E9, 0.0, 2025-03-02 19:55:36.191
173.0, 22275.4579514811, 13072.618910386433, 0.0, 0.0, 0.0, 0.0, 0.0, 18321.590819548466, 0.034, -0.024, 0.996, 192.0, 0.0, 0.0, 0.0, 0.0, 0.0, 0.0, 0.0, 0.0, 0.0, 1.740938136191865E9, 0.0, 2025-03-02 19:55:36.191
174.0, 22122.348501962246, 12822.43583469818, 0.0, 0.0, 0.0, 0.0, 0.0, 19337.567012019994, 0.034, -0.024, 0.996, 192.0, 0.0, 0.0, 0.0, 0.0, 0.0, 0.0, 0.0, 0.0, 0.0, 1.740938136191887E9, 0.0, 2025-03-02 19:55:36.191
175.0, 22109.94328378955, 12721.070673593364, 0.0, 0.0, 0.0, 0.0, 0.0, 18789.502237975867, 0.034, -0.024, 0.996, 192.0, 0.0, 0.0, 0.0, 0.0, 0.0, 0.0, 0.0, 0.0, 0.0, 1.740938136191924E9, 0.0, 2025-03-02 19:55:36.191
176.0, 22211.420203616646, 12689.979397056031, 0.0, 0.0, 0.0, 0.0, 0.0, 16860.23376706049, 0.034, -0.024, 0.996, 192.0, 0.0, 0.0, 0.0, 0.0, 0.0, 0.0, 0.0, 0.0, 0.0, 1.740938136191985E9, 0.0, 2025-03-02 19:55:36.191
177.0, 22395.4868192061, 12901.784527514521, 0.0, 0.0, 0.0, 0.0, 0.0, 14943.728142229098, 0.034, -0.024, 0.996, 192.0, 0.0, 0.0, 0.0, 0.0, 0.0, 0.0, 0.0, 0.0, 0.0, 1.740938136192034E9, 0.0, 2025-03-02 19:55:36.192
178.0, 22273.714515413587, 13066.226311472215, 0.0, 0.0, 0.0, 0.0, 0.0, 18289.18079008827, 0.034, -0.024, 0.996, 192.0, 0.0, 0.0, 0.0, 0.0, 0.0, 0.0, 0.0, 0.0, 0.0, 1.74093813619208E9, 0.0, 2025-03-02 19:55:36.192
179.0, 22109.250379711437, 12810.030616525486, 0.0, 0.0, 0.0, 0.0, 0.0, 19331.30852357251, 0.034, -0.024, 0.996, 192.0, 0.0, 0.0, 0.0, 0.0, 0.0, 0.0, 0.0, 0.0, 0.0, 1.74093813619212E9, 0.0, 2025-03-02 19:55:36.192
180.0, 22096.219312693993, 12711.437071733126, 0.0, 0.0, 0.0, 0.0, 0.0, 18795.04547060078, 0.034, -0.024, 0.996, 192.0, 0.0, 0.0, 0.0, 0.0, 0.0, 0.0, 0.0, 0.0, 0.0, 1.740938136251784E9, 0.0, 2025-03-02 19:55:36.251
181.0, 22193.427049330123, 12669.639309601702, 0.0, 0.0, 0.0, 0.0, 0.0, 16890.54273254189, 0.034, -0.024, 0.996, 192.0, 0.0, 0.0, 0.0, 0.0, 0.0, 0.0, 0.0, 0.0, 0.0, 1.740938136251825E9, 0.0, 2025-03-02 19:55:36.251
182.0, 22379.19239749818, 12887.971149441142, 0.0, 0.0, 0.0, 0.0, 0.0, 14937.894336926263, 0.038, -0.026000000000000002, 0.994, 192.0, 1.0, 48.0, 255.0, 48.0, 31.0, 16.0, 0.0, 0.0, 0.0, 1.740938136251849E9, 0.0, 2025-03-02 19:55:36.251
183.0, 22263.566823430876, 13062.672384103822, 0.0, 0.0, 0.0, 0.0, 0.0, 18242.17507149876, 0.038, -0.026000000000000002, 0.994, 192.0, 0.0, 0.0, 0.0, 0.0, 0.0, 0.0, 0.0, 0.0, 0.0, 1.740938136251872E9, 0.0, 2025-03-02 19:55:36.251
184.0, 22109.295083200348, 12819.932439319187, 0.0, 0.0, 0.0, 0.0, 0.0, 19320.937314145245, 0.038, -0.026000000000000002, 0.994, 192.0, 0.0, 0.0, 0.0, 0.0, 0.0, 0.0, 0.0, 0.0, 0.0, 1.740938136251939E9, 0.0, 2025-03-02 19:55:36.251
185.0, 22101.69549008554, 12712.956990356088, 0.0, 0.0, 0.0, 0.0, 0.0, 18785.61303444064, 0.038, -0.026000000000000002, 0.994, 192.0, 0.0, 0.0, 0.0, 0.0, 0.0, 0.0, 0.0, 0.0, 0.0, 1.740938136251961E9, 0.0, 2025-03-02 19:55:36.251
186.0, 22198.590302299297, 12677.909455050167, 0.0, 0.0, 0.0, 0.0, 0.0, 16916.001369476482, 0.038, -0.026000000000000002, 0.994, 192.0, 0.0, 0.0, 0.0, 0.0, 0.0, 0.0, 0.0, 0.0, 0.0, 1.740938136251982E9, 0.0, 2025-03-02 19:55:36.251
187.0, 22384.243891745078, 12881.466791804647, 0.0, 0.0, 0.0, 0.0, 0.0, 14927.81370017692, 0.038, -0.026000000000000002, 0.994, 192.0, 0.0, 0.0, 0.0, 0.0, 0.0, 0.0, 0.0, 0.0, 0.0, 1.740938136252003E9, 0.0, 2025-03-02 19:55:36.252
188.0, 22270.473512467564, 13057.196206712271, 0.0, 0.0, 0.0, 0.0, 0.0, 18222.684350333733, 0.038, -0.026000000000000002, 0.994, 192.0, 0.0, 0.0, 0.0, 0.0, 0.0, 0.0, 0.0, 0.0, 0.0, 1.740938136252024E9, 0.0, 2025-03-02 19:55:36.252
189.0, 22108.08808899976, 12805.224991467596, 0.0, 0.0, 0.0, 0.0, 0.0, 19351.201576137733, 0.038, -0.026000000000000002, 0.994, 192.0, 0.0, 0.0, 0.0, 0.0, 0.0, 0.0, 0.0, 0.0, 0.0, 1.740938136252045E9, 0.0, 2025-03-02 19:55:36.252
190.0, 22099.86264704021, 12706.318522252861, 0.0, 0.0, 0.0, 0.0, 0.0, 18797.95119737997, 0.038, -0.026000000000000002, 0.994, 192.0, 0.0, 0.0, 0.0, 0.0, 0.0, 0.0, 0.0, 0.0, 0.0, 1.740938136252066E9, 0.0, 2025-03-02 19:55:36.252
191.0, 22196.86921797624, 12669.058164245864, 0.0, 0.0, 0.0, 0.0, 0.0, 16935.201517963593, 0.038, -0.026000000000000002, 0.994, 192.0, 0.0, 0.0, 0.0, 0.0, 0.0, 0.0, 0.0, 0.0, 0.0, 1.740938136252087E9, 0.0, 2025-03-02 19:55:36.252
192.0, 22380.04176378748, 12859.383268282803, 0.0, 0.0, 0.0, 0.0, 0.0, 14914.223839548093, 0.032, -0.022, 0.996, 192.0, 1.0, 0.0, 255.0, 80.0, 31.0, 32.0, 0.0, 0.0, 0.0, 1.740938136252108E9, 0.0, 2025-03-02 19:55:36.252
193.0, 22271.63580317924, 13046.310907162537, 0.0, 0.0, 0.0, 0.0, 0.0, 18179.366669579347, 0.032, -0.022, 0.996, 192.0, 0.0, 0.0, 0.0, 0.0, 0.0, 0.0, 0.0, 0.0, 0.0, 1.740938136252131E9, 0.0, 2025-03-02 19:55:36.252
194.0, 22116.33588270377, 12805.269694956505, 0.0, 0.0, 0.0, 0.0, 0.0, 19333.40958755131, 0.032, -0.022, 0.996, 192.0, 0.0, 0.0, 0.0, 0.0, 0.0, 0.0, 0.0, 0.0, 0.0, 1.740938136252152E9, 0.0, 2025-03-02 19:55:36.252
195.0, 22104.891789542653, 12710.855926377288, 0.0, 0.0, 0.0, 0.0, 0.0, 18782.036755327794, 0.032, -0.022, 0.996, 192.0, 0.0, 0.0, 0.0, 0.0, 0.0, 0.0, 0.0, 0.0, 0.0, 1.740938136310671E9, 0.0, 2025-03-02 19:55:36.310
196.0, 22201.183104656113, 12674.199065470584, 0.0, 0.0, 0.0, 0.0, 0.0, 16962.113018287782, 0.032, -0.022, 0.996, 192.0, 0.0, 0.0, 0.0, 0.0, 0.0, 0.0, 0.0, 0.0, 0.0, 1.740938136310731E9, 0.0, 2025-03-02 19:55:36.310
197.0, 22393.542217438488, 12866.379364297316, 0.0, 0.0, 0.0, 0.0, 0.0, 14927.634886221276, 0.032, -0.022, 0.996, 192.0, 0.0, 0.0, 0.0, 0.0, 0.0, 0.0, 0.0, 0.0, 0.0, 1.740938136310841E9, 0.0, 2025-03-02 19:55:36.310
198.0, 22275.145027058727, 13050.5800903535, 0.0, 0.0, 0.0, 0.0, 0.0, 18158.244271069085, 0.032, -0.022, 0.996, 192.0, 0.0, 0.0, 0.0, 0.0, 0.0, 0.0, 0.0, 0.0, 0.0, 1.740938136310868E9, 0.0, 2025-03-02 19:55:36.310
199.0, 22111.70907160152, 12810.63411362578, 0.0, 0.0, 0.0, 0.0, 0.0, 19321.384349034353, 0.032, -0.022, 0.996, 192.0, 0.0, 0.0, 0.0, 0.0, 0.0, 0.0, 0.0, 0.0, 0.0, 1.740938136310891E9, 0.0, 2025-03-02 19:55:36.310
200.0, 22094.162952204104, 12718.902554381199, 0.0, 0.0, 0.0, 0.0, 0.0, 18770.05622029975, 0.032, -0.022, 0.996, 192.0, 0.0, 0.0, 0.0, 0.0, 0.0, 0.0, 0.0, 0.0, 0.0, 1.74093813631093E9, 0.0, 2025-03-02 19:55:36.310
201.0, 22190.521322550932, 12678.244731216995, 0.0, 0.0, 0.0, 0.0, 0.0, 16985.69410868813, 0.032, -0.022, 0.996, 192.0, 0.0, 0.0, 0.0, 0.0, 0.0, 0.0, 0.0, 0.0, 0.0, 1.740938136311006E9, 0.0, 2025-03-02 19:55:36.311
202.0, 22381.47227543262, 12869.21803584314, 0.0, 0.0, 0.0, 0.0, 0.0, 14933.021656635006, 0.032, -0.016, 0.994, 192.0, 1.0, 0.0, 255.0, 128.0, 31.0, 16.0, 0.0, 0.0, 0.0, 1.740938136311028E9, 0.0, 2025-03-02 19:55:36.311
203.0, 22274.92150961417, 13058.5820148685, 0.0, 0.0, 0.0, 0.0, 0.0, 18133.81381437943, 0.032, -0.016, 0.994, 192.0, 0.0, 0.0, 0.0, 0.0, 0.0, 0.0, 0.0, 0.0, 0.0, 1.74093813631105E9, 0.0, 2025-03-02 19:55:36.311
204.0, 22117.453469926535, 12812.53401190448, 0.0, 0.0, 0.0, 0.0, 0.0, 19344.07136965649, 0.032, -0.016, 0.994, 192.0, 0.0, 0.0, 0.0, 0.0, 0.0, 0.0, 0.0, 0.0, 0.0, 1.740938136311072E9, 0.0, 2025-03-02 19:55:36.311
205.0, 22107.886923299662, 12704.865658863266, 0.0, 0.0, 0.0, 0.0, 0.0, 18806.936598651006, 0.032, -0.016, 0.994, 192.0, 0.0, 0.0, 0.0, 0.0, 0.0, 0.0, 0.0, 0.0, 0.0, 1.740938136311093E9, 0.0, 2025-03-02 19:55:36.311
206.0, 22187.4367818161, 12659.603376341269, 0.0, 0.0, 0.0, 0.0, 0.0, 17011.55507702292, 0.032, -0.016, 0.994, 192.0, 0.0, 0.0, 0.0, 0.0, 0.0, 0.0, 0.0, 0.0, 0.0, 1.740938136311114E9, 0.0, 2025-03-02 19:55:36.311
207.0, 22380.064115531935, 12847.693305932678, 0.0, 0.0, 0.0, 0.0, 0.0, 14904.053795820928, 0.032, -0.016, 0.994, 192.0, 0.0, 0.0, 0.0, 0.0, 0.0, 0.0, 0.0, 0.0, 0.0, 1.740938136311135E9, 0.0, 2025-03-02 19:55:36.311
208.0, 22277.290794526434, 13029.5247470766, 0.0, 0.0, 0.0, 0.0, 0.0, 18083.321223654893, 0.032, -0.016, 0.994, 192.0, 0.0, 0.0, 0.0, 0.0, 0.0, 0.0, 0.0, 0.0, 0.0, 1.74093813631116E9, 0.0, 2025-03-02 19:55:36.311
209.0, 22109.47389715599, 12785.24253192455, 0.0, 0.0, 0.0, 0.0, 0.0, 19330.705026472217, 0.032, -0.016, 0.994, 192.0, 0.0, 0.0, 0.0, 0.0, 0.0, 0.0, 0.0, 0.0, 0.0, 1.740938136311181E9, 0.0, 2025-03-02 19:55:36.311
210.0, 22088.57501609028, 12682.692728363601, 0.0, 0.0, 0.0, 0.0, 0.0, 18778.683993659495, 0.032, -0.016, 0.994, 192.0, 0.0, 0.0, 0.0, 0.0, 0.0, 0.0, 0.0, 0.0, 0.0, 1.740938136370964E9, 0.0, 2025-03-02 19:55:36.370
211.0, 22181.647680002177, 12648.673373302625, 0.0, 0.0, 0.0, 0.0, 0.0, 17038.377170369287, 0.032, -0.016, 0.994, 192.0, 0.0, 0.0, 0.0, 0.0, 0.0, 0.0, 0.0, 0.0, 0.0, 1.740938136371009E9, 0.0, 2025-03-02 19:55:36.371
212.0, 22372.710391606142, 12827.710846389635, 0.0, 0.0, 0.0, 0.0, 0.0, 14895.940112583652, 0.034, -0.02, 0.992, 192.0, 1.0, 16.0, 255.0, 96.0, 31.0, 0.0, 0.0, 0.0, 0.0, 1.740938136371031E9, 0.0, 2025-03-02 19:55:36.371
213.0, 22268.238338022034, 13014.034988169073, 0.0, 0.0, 0.0, 0.0, 0.0, 18023.731472937045, 0.034, -0.02, 0.992, 192.0, 0.0, 0.0, 0.0, 0.0, 0.0, 0.0, 0.0, 0.0, 0.0, 1.740938136371053E9, 0.0, 2025-03-02 19:55:36.371
214.0, 22115.933551303573, 12783.744965046046, 0.0, 0.0, 0.0, 0.0, 0.0, 19310.074366339966, 0.034, -0.02, 0.992, 192.0, 0.0, 0.0, 0.0, 0.0, 0.0, 0.0, 0.0, 0.0, 0.0, 1.740938136371074E9, 0.0, 2025-03-02 19:55:36.371
215.0, 22091.4136876361, 12680.614016129259, 0.0, 0.0, 0.0, 0.0, 0.0, 18764.065952785724, 0.034, -0.02, 0.992, 192.0, 0.0, 0.0, 0.0, 0.0, 0.0, 0.0, 0.0, 0.0, 0.0, 1.740938136371094E9, 0.0, 2025-03-02 19:55:36.371
216.0, 22172.841092686784, 12641.54316682138, 0.0, 0.0, 0.0, 0.0, 0.0, 17041.70758029313, 0.034, -0.02, 0.992, 192.0, 0.0, 0.0, 0.0, 0.0, 0.0, 0.0, 0.0, 0.0, 0.0, 1.740938136371114E9, 0.0, 2025-03-02 19:55:36.371
217.0, 22369.312926448933, 12828.627267912301, 0.0, 0.0, 0.0, 0.0, 0.0, 14895.828353861376, 0.034, -0.02, 0.992, 192.0, 0.0, 0.0, 0.0, 0.0, 0.0, 0.0, 0.0, 0.0, 0.0, 1.740938136371134E9, 0.0, 2025-03-02 19:55:36.371
218.0, 22277.3578497598, 13028.742436020666, 0.0, 0.0, 0.0, 0.0, 0.0, 17997.60228366879, 0.034, -0.02, 0.992, 192.0, 0.0, 0.0, 0.0, 0.0, 0.0, 0.0, 0.0, 0.0, 0.0, 1.740938136371226E9, 0.0, 2025-03-02 19:55:36.371
219.0, 22110.367966934202, 12795.278465184983, 0.0, 0.0, 0.0, 0.0, 0.0, 19296.77507838906, 0.034, -0.02, 0.992, 192.0, 0.0, 0.0, 0.0, 0.0, 0.0, 0.0, 0.0, 0.0, 0.0, 1.74093813637125E9, 0.0, 2025-03-02 19:55:36.371
220.0, 22097.068678983294, 12695.924961081144, 0.0, 0.0, 0.0, 0.0, 0.0, 18756.86869107112, 0.034, -0.02, 0.992, 192.0, 0.0, 0.0, 0.0, 0.0, 0.0, 0.0, 0.0, 0.0, 0.0, 1.74093813637127E9, 0.0, 2025-03-02 19:55:36.371
221.0, 22186.274491104425, 12637.855128986255, 0.0, 0.0, 0.0, 0.0, 0.0, 17085.13701976979, 0.034, -0.024, 0.992, 192.0, 1.0, 16.0, 255.0, 64.0, 31.0, 0.0, 0.0, 0.0, 0.0, 1.74093813637129E9, 0.0, 2025-03-02 19:55:36.371
222.0, 22369.245871215568, 12810.522354903504, 0.0, 0.0, 0.0, 0.0, 0.0, 14884.98775780055, 0.034, -0.024, 0.992, 192.0, 0.0, 0.0, 0.0, 0.0, 0.0, 0.0, 0.0, 0.0, 0.0, 1.740938136371312E9, 0.0, 2025-03-02 19:55:36.371
223.0, 22277.514311970986, 13013.967932935708, 0.0, 0.0, 0.0, 0.0, 0.0, 17951.580041835314, 0.034, -0.024, 0.992, 192.0, 0.0, 0.0, 0.0, 0.0, 0.0, 0.0, 0.0, 0.0, 0.0, 1.740938136371332E9, 0.0, 2025-03-02 19:55:36.371
224.0, 22114.123060002694, 12782.023880722987, 0.0, 0.0, 0.0, 0.0, 0.0, 19296.126877799856, 0.034, -0.024, 0.992, 192.0, 0.0, 0.0, 0.0, 0.0, 0.0, 0.0, 0.0, 0.0, 0.0, 1.740938136371352E9, 0.0, 2025-03-02 19:55:36.371
225.0, 22094.431173137567, 12675.964853282554, 0.0, 0.0, 0.0, 0.0, 0.0, 18761.80842659574, 0.034, -0.024, 0.992, 192.0, 0.0, 0.0, 0.0, 0.0, 0.0, 0.0, 0.0, 0.0, 0.0, 1.740938136431277E9, 0.0, 2025-03-02 19:55:36.431
226.0, 22172.23759558649, 12633.74240800648, 0.0, 0.0, 0.0, 0.0, 0.0, 17091.820191361927, 0.034, -0.024, 0.992, 192.0, 0.0, 0.0, 0.0, 0.0, 0.0, 0.0, 0.0, 0.0, 0.0, 1.740938136431332E9, 0.0, 2025-03-02 19:55:36.431
227.0, 22364.686115346685, 12819.39599745226, 0.0, 0.0, 0.0, 0.0, 0.0, 14877.298757707926, 0.034, -0.024, 0.992, 192.0, 0.0, 0.0, 0.0, 0.0, 0.0, 0.0, 0.0, 0.0, 0.0, 1.740938136431371E9, 0.0, 2025-03-02 19:55:36.431
228.0, 22276.41907649268, 13019.198241138249, 0.0, 0.0, 0.0, 0.0, 0.0, 17935.866765483235, 0.034, -0.024, 0.992, 192.0, 0.0, 0.0, 0.0, 0.0, 0.0, 0.0, 0.0, 0.0, 0.0, 1.740938136431408E9, 0.0, 2025-03-02 19:55:36.431
229.0, 22107.28342619937, 12781.487438856058, 0.0, 0.0, 0.0, 0.0, 0.0, 19296.39509873332, 0.034, -0.024, 0.992, 192.0, 0.0, 0.0, 0.0, 0.0, 0.0, 0.0, 0.0, 0.0, 0.0, 1.740938136431445E9, 0.0, 2025-03-02 19:55:36.431
230.0, 22092.6653853256, 12664.006669998966, 0.0, 0.0, 0.0, 0.0, 0.0, 18739.255516440335, 0.034, -0.024, 0.992, 192.0, 0.0, 0.0, 0.0, 0.0, 0.0, 0.0, 0.0, 0.0, 0.0, 1.740938136431482E9, 0.0, 2025-03-02 19:55:36.431
231.0, 22174.42806654311, 12628.087416659286, 0.0, 0.0, 0.0, 0.0, 0.0, 17091.66372915074, 0.03, -0.022, 0.99, 192.0, 0.0, 240.0, 255.0, 80.0, 30.0, 240.0, 0.0, 0.0, 0.0, 1.740938136431519E9, 0.0, 2025-03-02 19:55:36.431
232.0, 22357.600612354352, 12798.742985575556, 0.0, 0.0, 0.0, 0.0, 0.0, 14848.532062593946, 0.03, -0.022, 0.99, 192.0, 0.0, 0.0, 0.0, 0.0, 0.0, 0.0, 0.0, 0.0, 0.0, 1.740938136431561E9, 0.0, 2025-03-02 19:55:36.431
233.0, 22264.97498333156, 13003.507316530624, 0.0, 0.0, 0.0, 0.0, 0.0, 17881.172046801097, 0.03, -0.022, 0.99, 192.0, 0.0, 0.0, 0.0, 0.0, 0.0, 0.0, 0.0, 0.0, 0.0, 1.740938136431603E9, 0.0, 2025-03-02 19:55:36.431
234.0, 22095.861684782707, 12778.604063821324, 0.0, 0.0, 0.0, 0.0, 0.0, 19285.28628173903, 0.03, -0.022, 0.99, 192.0, 0.0, 0.0, 0.0, 0.0, 0.0, 0.0, 0.0, 0.0, 0.0, 1.74093813643164E9, 0.0, 2025-03-02 19:55:36.431
235.0, 22082.94237648754, 12673.282643947918, 0.0, 0.0, 0.0, 0.0, 0.0, 18759.23797598338, 0.03, -0.022, 0.99, 192.0, 0.0, 0.0, 0.0, 0.0, 0.0, 0.0, 0.0, 0.0, 0.0, 1.740938136431743E9, 0.0, 2025-03-02 19:55:36.431
236.0, 22170.71767696353, 12636.581079552303, 0.0, 0.0, 0.0, 0.0, 0.0, 17129.05819762447, 0.03, -0.022, 0.99, 192.0, 0.0, 0.0, 0.0, 0.0, 0.0, 0.0, 0.0, 0.0, 0.0, 1.740938136431774E9, 0.0, 2025-03-02 19:55:36.431
237.0, 22360.70750483364, 12801.715767588112, 0.0, 0.0, 0.0, 0.0, 0.0, 14854.74584755252, 0.03, -0.022, 0.99, 192.0, 0.0, 0.0, 0.0, 0.0, 0.0, 0.0, 0.0, 0.0, 0.0, 1.740938136431795E9, 0.0, 2025-03-02 19:55:36.431
238.0, 22269.914718856184, 13007.418871810303, 0.0, 0.0, 0.0, 0.0, 0.0, 17875.561758942815, 0.03, -0.022, 0.99, 192.0, 0.0, 0.0, 0.0, 0.0, 0.0, 0.0, 0.0, 0.0, 0.0, 1.740938136431815E9, 0.0, 2025-03-02 19:55:36.431
239.0, 22105.204713965024, 12767.629357293768, 0.0, 0.0, 0.0, 0.0, 0.0, 19286.91795908427, 0.03, -0.022, 0.99, 192.0, 0.0, 0.0, 0.0, 0.0, 0.0, 0.0, 0.0, 0.0, 0.0, 1.740938136431835E9, 0.0, 2025-03-02 19:55:36.431
240.0, 22080.28251889736, 12644.113617433743, 0.0, 0.0, 0.0, 0.0, 0.0, 18733.75698730433, 0.03, -0.022, 0.99, 192.0, 0.0, 0.0, 0.0, 0.0, 0.0, 0.0, 0.0, 0.0, 0.0, 1.740938136431865E9, 0.0, 2025-03-02 19:55:36.431
241.0, 22156.90429889015, 12607.568515249315, 0.0, 0.0, 0.0, 0.0, 0.0, 17139.988200663116, 0.032, -0.02, 0.994, 192.0, 1.0, 0.0, 255.0, 96.0, 31.0, 16.0, 0.0, 0.0, 0.0, 1.740938136492456E9, 0.0, 2025-03-02 19:55:36.492
242.0, 22356.907708276238, 12783.253226668028, 0.0, 0.0, 0.0, 0.0, 0.0, 14847.682696304644, 0.032, -0.02, 0.994, 192.0, 0.0, 0.0, 0.0, 0.0, 0.0, 0.0, 0.0, 0.0, 0.0, 1.74093813649251E9, 0.0, 2025-03-02 19:55:36.492
243.0, 22279.347155016323, 13001.160383362816, 0.0, 0.0, 0.0, 0.0, 0.0, 17859.960241313012, 0.032, -0.02, 0.994, 192.0, 0.0, 0.0, 0.0, 0.0, 0.0, 0.0, 0.0, 0.0, 0.0, 1.740938136492532E9, 0.0, 2025-03-02 19:55:36.492
244.0, 22110.65853961212, 12784.460220868616, 0.0, 0.0, 0.0, 0.0, 0.0, 19303.72647091466, 0.032, -0.02, 0.994, 192.0, 0.0, 0.0, 0.0, 0.0, 0.0, 0.0, 0.0, 0.0, 0.0, 1.740938136492553E9, 0.0, 2025-03-02 19:55:36.492
245.0, 22094.677042326577, 12682.312748707862, 0.0, 0.0, 0.0, 0.0, 0.0, 18739.3225716737, 0.032, -0.02, 0.994, 192.0, 0.0, 0.0, 0.0, 0.0, 0.0, 0.0, 0.0, 0.0, 0.0, 1.740938136492595E9, 0.0, 2025-03-02 19:55:36.492
246.0, 22165.86734841673, 12624.064102657332, 0.0, 0.0, 0.0, 0.0, 0.0, 17171.615919067375, 0.032, -0.02, 0.994, 192.0, 0.0, 0.0, 0.0, 0.0, 0.0, 0.0, 0.0, 0.0, 0.0, 1.740938136492628E9, 0.0, 2025-03-02 19:55:36.492
247.0, 22367.591842125876, 12787.611816836814, 0.0, 0.0, 0.0, 0.0, 0.0, 14854.969364997074, 0.032, -0.02, 0.994, 192.0, 0.0, 0.0, 0.0, 0.0, 0.0, 0.0, 0.0, 0.0, 0.0, 1.740938136492658E9, 0.0, 2025-03-02 19:55:36.492
248.0, 22286.477361497567, 13001.987397907664, 0.0, 0.0, 0.0, 0.0, 0.0, 17842.481177148962, 0.032, -0.02, 0.994, 192.0, 0.0, 0.0, 0.0, 0.0, 0.0, 0.0, 0.0, 0.0, 0.0, 1.740938136492679E9, 0.0, 2025-03-02 19:55:36.492
249.0, 22110.7702983344, 12774.424287608183, 0.0, 0.0, 0.0, 0.0, 0.0, 19333.40958755131, 0.032, -0.02, 0.994, 192.0, 0.0, 0.0, 0.0, 0.0, 0.0, 0.0, 0.0, 0.0, 0.0, 1.740938136492699E9, 0.0, 2025-03-02 19:55:36.492
250.0, 22088.284443412358, 12664.967795010543, 0.0, 0.0, 0.0, 0.0, 0.0, 18771.732601133896, 0.032, -0.02, 0.994, 192.0, 0.0, 0.0, 0.0, 0.0, 0.0, 0.0, 0.0, 0.0, 0.0, 1.74093813649272E9, 0.0, 2025-03-02 19:55:36.492
251.0, 22169.801255440863, 12638.212756897541, 0.0, 0.0, 0.0, 0.0, 0.0, 17202.416622926787, 0.036000000000000004, -0.028, 0.992, 192.0, 1.0, 32.0, 255.0, 32.0, 31.0, 0.0, 0.0, 0.0, 0.0, 1.74093813649274E9, 0.0, 2025-03-02 19:55:36.492
252.0, 22357.19828095416, 12801.939285032664, 0.0, 0.0, 0.0, 0.0, 0.0, 14822.089948903316, 0.036000000000000004, -0.028, 0.992, 192.0, 0.0, 0.0, 0.0, 0.0, 0.0, 0.0, 0.0, 0.0, 0.0, 1.740938136492823E9, 0.0, 2025-03-02 19:55:36.492
253.0, 22280.509445728, 13020.181717894284, 0.0, 0.0, 0.0, 0.0, 0.0, 17789.552246278792, 0.036000000000000004, -0.028, 0.992, 192.0, 0.0, 0.0, 0.0, 0.0, 0.0, 0.0, 0.0, 0.0, 0.0, 1.740938136492844E9, 0.0, 2025-03-02 19:55:36.492
254.0, 22118.973388549493, 12798.810040808921, 0.0, 0.0, 0.0, 0.0, 0.0, 19320.579686233963, 0.036000000000000004, -0.028, 0.992, 192.0, 0.0, 0.0, 0.0, 0.0, 0.0, 0.0, 0.0, 0.0, 0.0, 1.740938136492864E9, 0.0, 2025-03-02 19:55:36.492
255.0, 22105.00354826493, 12662.240882186996, 0.0, 0.0, 0.0, 0.0, 0.0, 18766.994031309372, 0.036000000000000004, -0.028, 0.992, 192.0, 0.0, 0.0, 0.0, 0.0, 0.0, 0.0, 0.0, 0.0, 0.0, 1.740938136492885E9, 0.0, 2025-03-02 19:55:36.492
0.0, 22179.59131951229, 12622.410073567638, 0.0, 0.0, 0.0, 0.0, 0.0, 17218.912210334805, 0.036000000000000004, -0.028, 0.992, 192.0, 0.0, 0.0, 0.0, 0.0, 0.0, 0.0, 0.0, 0.0, 0.0, 1.740938136552013E9, 0.0, 2025-03-02 19:55:36.552
1.0, 22359.746379822063, 12777.665290554201, 0.0, 0.0, 0.0, 0.0, 0.0, 14825.621524527256, 0.036000000000000004, -0.028, 0.992, 192.0, 0.0, 0.0, 0.0, 0.0, 0.0, 0.0, 0.0, 0.0, 0.0, 1.740938136552053E9, 0.0, 2025-03-02 19:55:36.552
2.0, 22247.048884278403, 12971.119638814884, 0.0, 0.0, 0.0, 0.0, 0.0, 17741.22777476642, 0.036000000000000004, -0.028, 0.992, 192.0, 0.0, 0.0, 0.0, 0.0, 0.0, 0.0, 0.0, 0.0, 0.0, 1.740938136552075E9, 0.0, 2025-03-02 19:55:36.552
3.0, 22067.98905944694, 12737.499205768014, 0.0, 0.0, 0.0, 0.0, 0.0, 19274.82566533395, 0.036000000000000004, -0.028, 0.992, 192.0, 0.0, 0.0, 0.0, 0.0, 0.0, 0.0, 0.0, 0.0, 0.0, 1.740938136552095E9, 0.0, 2025-03-02 19:55:36.552
4.0, 22060.300059354315, 12627.372160836716, 0.0, 0.0, 0.0, 0.0, 0.0, 18718.110766185615, 0.038, -0.028, 0.996, 192.0, 1.0, 48.0, 255.0, 32.0, 31.0, 32.0, 0.0, 0.0, 0.0, 1.740938136552115E9, 0.0, 2025-03-02 19:55:36.552
5.0, 22137.637095169677, 12603.656959969636, 0.0, 0.0, 0.0, 0.0, 0.0, 17204.875314816873, 0.038, -0.028, 0.996, 192.0, 0.0, 0.0, 0.0, 0.0, 0.0, 0.0, 0.0, 0.0, 0.0, 1.740938136552137E9, 0.0, 2025-03-02 19:55:36.552
6.0, 22341.641466813264, 12752.988964675542, 0.0, 0.0, 0.0, 0.0, 0.0, 14816.926695934142, 0.038, -0.028, 0.996, 192.0, 0.0, 0.0, 0.0, 0.0, 0.0, 0.0, 0.0, 0.0, 0.0, 1.740938136552157E9, 0.0, 2025-03-02 19:55:36.552
7.0, 22248.300581967902, 12954.042906051029, 0.0, 0.0, 0.0, 0.0, 0.0, 17725.22392573642, 0.038, -0.028, 0.996, 192.0, 0.0, 0.0, 0.0, 0.0, 0.0, 0.0, 0.0, 0.0, 0.0, 1.740938136552177E9, 0.0, 2025-03-02 19:55:36.552
8.0, 22074.113437427695, 12741.299002325417, 0.0, 0.0, 0.0, 0.0, 0.0, 19295.657491166294, 0.038, -0.028, 0.996, 192.0, 0.0, 0.0, 0.0, 0.0, 0.0, 0.0, 0.0, 0.0, 0.0, 1.740938136552196E9, 0.0, 2025-03-02 19:55:36.552
9.0, 22051.31465808328, 12615.279867086396, 0.0, 0.0, 0.0, 0.0, 0.0, 18729.398397135545, 0.038, -0.028, 0.996, 192.0, 0.0, 0.0, 0.0, 0.0, 0.0, 0.0, 0.0, 0.0, 0.0, 1.740938136552232E9, 0.0, 2025-03-02 19:55:36.552
10.0, 22111.396147179144, 12560.652203637625, 0.0, 0.0, 0.0, 0.0, 0.0, 17226.467099960697, 0.038, -0.028, 0.996, 192.0, 0.0, 0.0, 0.0, 0.0, 0.0, 0.0, 0.0, 0.0, 0.0, 1.740938136552252E9, 0.0, 2025-03-02 19:55:36.552
11.0, 22326.486984072566, 12724.155214328197, 0.0, 0.0, 0.0, 0.0, 0.0, 14789.076422342829, 0.038, -0.028, 0.996, 192.0, 0.0, 0.0, 0.0, 0.0, 0.0, 0.0, 0.0, 0.0, 0.0, 1.740938136552272E9, 0.0, 2025-03-02 19:55:36.552
12.0, 22255.229622749048, 12956.054563052006, 0.0, 0.0, 0.0, 0.0, 0.0, 17671.490332065863, 0.038, -0.028, 0.996, 192.0, 0.0, 0.0, 0.0, 0.0, 0.0, 0.0, 0.0, 0.0, 0.0, 1.740938136552294E9, 0.0, 2025-03-02 19:55:36.552
13.0, 22080.908367742108, 12735.487548767036, 0.0, 0.0, 0.0, 0.0, 0.0, 19281.978223559647, 0.038, -0.028, 0.996, 192.0, 0.0, 0.0, 0.0, 0.0, 0.0, 0.0, 0.0, 0.0, 0.0, 1.740938136552384E9, 0.0, 2025-03-02 19:55:36.552
14.0, 22051.13584412764, 12605.467451270515, 0.0, 0.0, 0.0, 0.0, 0.0, 18727.90083025704, 0.04, -0.026000000000000002, 0.994, 192.0, 1.0, 64.0, 255.0, 48.0, 31.0, 16.0, 0.0, 0.0, 0.0, 1.740938136552422E9, 0.0, 2025-03-02 19:55:36.552
15.0, 22128.875211343195, 12576.29842475634, 0.0, 0.0, 0.0, 0.0, 0.0, 17253.959745640725, 0.04, -0.026000000000000002, 0.994, 192.0, 0.0, 0.0, 0.0, 0.0, 0.0, 0.0, 0.0, 0.0, 0.0, 1.740938136611691E9, 0.0, 2025-03-02 19:55:36.611
16.0, 22336.79113826646, 12727.597382974314, 0.0, 0.0, 0.0, 0.0, 0.0, 14800.83343992632, 0.04, -0.026000000000000002, 0.994, 192.0, 0.0, 0.0, 0.0, 0.0, 0.0, 0.0, 0.0, 0.0, 0.0, 1.740938136611761E9, 0.0, 2025-03-02 19:55:36.611
17.0, 22259.99054431803, 12955.384010718348, 0.0, 0.0, 0.0, 0.0, 0.0, 17644.48942476385, 0.04, -0.026000000000000002, 0.994, 192.0, 0.0, 0.0, 0.0, 0.0, 0.0, 0.0, 0.0, 0.0, 0.0, 1.740938136611803E9, 0.0, 2025-03-02 19:55:36.611
18.0, 22083.36705963219, 12741.47781628106, 0.0, 0.0, 0.0, 0.0, 0.0, 19288.035546307034, 0.04, -0.026000000000000002, 0.994, 192.0, 0.0, 0.0, 0.0, 0.0, 0.0, 0.0, 0.0, 0.0, 0.0, 1.740938136611848E9, 0.0, 2025-03-02 19:55:36.611
19.0, 22081.713030542498, 12634.211794640041, 0.0, 0.0, 0.0, 0.0, 0.0, 18752.063066013226, 0.04, -0.026000000000000002, 0.994, 192.0, 0.0, 0.0, 0.0, 0.0, 0.0, 0.0, 0.0, 0.0, 0.0, 1.740938136611888E9, 0.0, 2025-03-02 19:55:36.611
20.0, 22155.96552562303, 12595.006834865431, 0.0, 0.0, 0.0, 0.0, 0.0, 17313.70595856976, 0.04, -0.026000000000000002, 0.994, 192.0, 0.0, 0.0, 0.0, 0.0, 0.0, 0.0, 0.0, 0.0, 0.0, 1.740938136611944E9, 0.0, 2025-03-02 19:55:36.611
21.0, 22350.336295406378, 12739.309697068895, 0.0, 0.0, 0.0, 0.0, 0.0, 14836.037437443429, 0.04, -0.026000000000000002, 0.994, 192.0, 0.0, 0.0, 0.0, 0.0, 0.0, 0.0, 0.0, 0.0, 0.0, 1.740938136611967E9, 0.0, 2025-03-02 19:55:36.611
22.0, 22288.019631864983, 12979.300377285526, 0.0, 0.0, 0.0, 0.0, 0.0, 17651.664334734003, 0.04, -0.026000000000000002, 0.994, 192.0, 0.0, 0.0, 0.0, 0.0, 0.0, 0.0, 0.0, 0.0, 0.0, 1.740938136611989E9, 0.0, 2025-03-02 19:55:36.611
23.0, 22125.790670608363, 12764.634223536757, 0.0, 0.0, 0.0, 0.0, 0.0, 19319.909133900303, 0.04, -0.026000000000000002, 0.994, 192.0, 0.0, 0.0, 0.0, 0.0, 0.0, 0.0, 0.0, 0.0, 0.0, 1.740938136612011E9, 0.0, 2025-03-02 19:55:36.612
24.0, 22099.125039473183, 12642.50429183296, 0.0, 0.0, 0.0, 0.0, 0.0, 18776.113543047137, 0.034, -0.022, 0.992, 192.0, 1.0, 16.0, 255.0, 80.0, 31.0, 0.0, 0.0, 0.0, 0.0, 1.740938136612033E9, 0.0, 2025-03-02 19:55:36.612
25.0, 22167.700191462063, 12619.772567721911, 0.0, 0.0, 0.0, 0.0, 0.0, 17359.19175853631, 0.034, -0.022, 0.992, 192.0, 0.0, 0.0, 0.0, 0.0, 0.0, 0.0, 0.0, 0.0, 0.0, 1.740938136612055E9, 0.0, 2025-03-02 19:55:36.612
26.0, 22369.648202615765, 12765.975328204077, 0.0, 0.0, 0.0, 0.0, 0.0, 14867.486341892045, 0.034, -0.022, 0.992, 192.0, 0.0, 0.0, 0.0, 0.0, 0.0, 0.0, 0.0, 0.0, 0.0, 1.740938136612077E9, 0.0, 2025-03-02 19:55:36.612
27.0, 22309.052623397427, 12992.644368725345, 0.0, 0.0, 0.0, 0.0, 0.0, 17649.40680854402, 0.034, -0.022, 0.992, 192.0, 0.0, 0.0, 0.0, 0.0, 0.0, 0.0, 0.0, 0.0, 0.0, 1.740938136612099E9, 0.0, 2025-03-02 19:55:36.612
28.0, 22137.972371336506, 12784.951959246631, 0.0, 0.0, 0.0, 0.0, 0.0, 19355.02372443959, 0.034, -0.022, 0.992, 192.0, 0.0, 0.0, 0.0, 0.0, 0.0, 0.0, 0.0, 0.0, 0.0, 1.74093813661212E9, 0.0, 2025-03-02 19:55:36.612
29.0, 22103.32716743078, 12643.063085444343, 0.0, 0.0, 0.0, 0.0, 0.0, 18795.268988045336, 0.034, -0.022, 0.992, 192.0, 0.0, 0.0, 0.0, 0.0, 0.0, 0.0, 0.0, 0.0, 0.0, 1.740938136612142E9, 0.0, 2025-03-02 19:55:36.612
30.0, 22172.550520008866, 12615.413977553128, 0.0, 0.0, 0.0, 0.0, 0.0, 17402.06240440159, 0.034, -0.022, 0.992, 192.0, 0.0, 0.0, 0.0, 0.0, 0.0, 0.0, 0.0, 0.0, 0.0, 1.740938136671961E9, 0.0, 2025-03-02 19:55:36.671
31.0, 22369.692906104676, 12768.232854394062, 0.0, 0.0, 0.0, 0.0, 0.0, 14883.557246155411, 0.034, -0.022, 0.992, 192.0, 0.0, 0.0, 0.0, 0.0, 0.0, 0.0, 0.0, 0.0, 0.0, 1.740938136672003E9, 0.0, 2025-03-02 19:55:36.672
