%OpenBCI Raw EXG Data
%Number of channels = 8
%Sample Rate = 250 Hz
%Board = OpenBCI_GUI$BoardCytonSerial
Sample Index, EXG Channel 0, EXG Channel 1, EXG Channel 2, EXG Channel 3, EXG Channel 4, EXG Channel 5, EXG Channel 6, EXG Channel 7, Accel Channel 0, Accel Channel 1, Accel Channel 2, Other, Other, Other, Other, Other, Other, Other, Analog Channel 0, Analog Channel 1, Analog Channel 2, Timestamp, Other, Timestamp (Formatted)
0.0, 0.0, 0.0, 0.0, 0.0, 0.0, 0.0, 0.0, 0.0, 0.022, -0.03, 0.988, 192.0, 0.0, 176.0, 255.0, 16.0, 30.0, 224.0, 0.0, 0.0, 0.0, 1.740937743209309E9, 0.0, 2025-03-02 19:49:03.209
1.0, 17916.331340829296, 5267.501505315484, 0.0, 0.0, 0.0, 0.0, 0.0, 13369.31596628618, 0.022, -0.03, 0.988, 192.0, 0.0, 0.0, 0.0, 0.0, 0.0, 0.0, 0.0, 0.0, 0.0, 1.740937743274161E9, 0.0, 2025-03-02 19:49:03.274
2.0, 17823.571601339772, 5048.566168375751, 0.0, 0.0, 0.0, 0.0, 0.0, 13079.97263431223, 0.022, -0.03, 0.988, 192.0, 0.0, 0.0, 0.0, 0.0, 0.0, 0.0, 0.0, 0.0, 0.0, 1.74093774327424E9, 0.0, 2025-03-02 19:49:03.274
3.0, 17873.34893624174, 5038.865511282148, 0.0, 0.0, 0.0, 0.0, 0.0, 12775.497171342036, 0.022, -0.03, 0.988, 192.0, 0.0, 0.0, 0.0, 0.0, 0.0, 0.0, 0.0, 0.0, 0.0, 1.740937743274284E9, 0.0, 2025-03-02 19:49:03.274
4.0, 18074.58169157287, 5084.708939159982, 0.0, 0.0, 0.0, 0.0, 0.0, 11019.432368210837, 0.022, -0.03, 0.988, 192.0, 0.0, 0.0, 0.0, 0.0, 0.0, 0.0, 0.0, 0.0, 0.0, 1.740937743274325E9, 0.0, 2025-03-02 19:49:03.274
5.0, 18175.522169533037, 5325.9289653216565, 0.0, 0.0, 0.0, 0.0, 0.0, 11400.551962918278, 0.022, -0.03, 0.988, 192.0, 0.0, 0.0, 0.0, 0.0, 0.0, 0.0, 0.0, 0.0, 0.0, 1.740937743274367E9, 0.0, 2025-03-02 19:49:03.274
6.0, 17938.258402139953, 5268.797906493892, 0.0, 0.0, 0.0, 0.0, 0.0, 13370.74647793132, 0.022, -0.03, 0.988, 192.0, 0.0, 0.0, 0.0, 0.0, 0.0, 0.0, 0.0, 0.0, 0.0, 1.74093774327441E9, 0.0, 2025-03-02 19:49:03.274
7.0, 17848.985534785454, 5057.23864522441, 0.0, 0.0, 0.0, 0.0, 0.0, 13082.498381435678, 0.028, -0.028, 0.984, 192.0, 0.0, 224.0, 255.0, 32.0, 30.0, 192.0, 0.0, 0.0, 0.0, 1.740937743274452E9, 0.0, 2025-03-02 19:49:03.274
8.0, 17881.239102034462, 5030.28244141131, 0.0, 0.0, 0.0, 0.0, 0.0, 12776.659462053713, 0.028, -0.028, 0.984, 192.0, 0.0, 0.0, 0.0, 0.0, 0.0, 0.0, 0.0, 0.0, 0.0, 1.740937743274496E9, 0.0, 2025-03-02 19:49:03.274
9.0, 18075.49811309554, 5081.534991447329, 0.0, 0.0, 0.0, 0.0, 0.0, 11024.84149036902, 0.028, -0.028, 0.984, 192.0, 0.0, 0.0, 0.0, 0.0, 0.0, 0.0, 0.0, 0.0, 0.0, 1.740937743274538E9, 0.0, 2025-03-02 19:49:03.274
10.0, 18191.101335418385, 5343.765657396992, 0.0, 0.0, 0.0, 0.0, 0.0, 11386.000977277872, 0.028, -0.028, 0.984, 192.0, 0.0, 0.0, 0.0, 0.0, 0.0, 0.0, 0.0, 0.0, 0.0, 1.74093774327458E9, 0.0, 2025-03-02 19:49:03.274
11.0, 17942.70639928656, 5291.909610260679, 0.0, 0.0, 0.0, 0.0, 0.0, 13371.93112038745, 0.028, -0.028, 0.984, 192.0, 0.0, 0.0, 0.0, 0.0, 0.0, 0.0, 0.0, 0.0, 0.0, 1.740937743274622E9, 0.0, 2025-03-02 19:49:03.274
12.0, 17842.905860293613, 5062.29013947131, 0.0, 0.0, 0.0, 0.0, 0.0, 13086.789916371097, 0.028, -0.028, 0.984, 192.0, 0.0, 0.0, 0.0, 0.0, 0.0, 0.0, 0.0, 0.0, 0.0, 1.740937743274665E9, 0.0, 2025-03-02 19:49:03.274
13.0, 17891.16327657262, 5048.476761397929, 0.0, 0.0, 0.0, 0.0, 0.0, 12777.218255665095, 0.028, -0.028, 0.984, 192.0, 0.0, 0.0, 0.0, 0.0, 0.0, 0.0, 0.0, 0.0, 0.0, 1.740937743274707E9, 0.0, 2025-03-02 19:49:03.274
14.0, 18090.87611328079, 5102.970314379968, 0.0, 0.0, 0.0, 0.0, 0.0, 11034.475092229259, 0.028, -0.028, 0.984, 192.0, 0.0, 0.0, 0.0, 0.0, 0.0, 0.0, 0.0, 0.0, 0.0, 1.74093774327475E9, 0.0, 2025-03-02 19:49:03.274
15.0, 18195.281111631528, 5358.540160481949, 0.0, 0.0, 0.0, 0.0, 0.0, 11370.77943930381, 0.028, -0.028, 0.984, 192.0, 0.0, 0.0, 0.0, 0.0, 0.0, 0.0, 0.0, 0.0, 0.0, 1.740937743274791E9, 0.0, 2025-03-02 19:49:03.274
16.0, 17956.095094215285, 5317.7705785954695, 0.0, 0.0, 0.0, 0.0, 0.0, 13365.806742406696, 0.028, -0.028, 0.984, 192.0, 0.0, 0.0, 0.0, 0.0, 0.0, 0.0, 0.0, 0.0, 0.0, 1.740937743334417E9, 0.0, 2025-03-02 19:49:03.334
17.0, 17863.58122391477, 5099.349331778209, 0.0, 0.0, 0.0, 0.0, 0.0, 13102.145564811894, 0.034, -0.026000000000000002, 0.992, 192.0, 1.0, 16.0, 255.0, 48.0, 31.0, 0.0, 0.0, 0.0, 0.0, 1.740937743334482E9, 0.0, 2025-03-02 19:49:03.334
18.0, 17897.935855142576, 5058.378584191631, 0.0, 0.0, 0.0, 0.0, 0.0, 12797.848915797344, 0.034, -0.026000000000000002, 0.992, 192.0, 0.0, 0.0, 0.0, 0.0, 0.0, 0.0, 0.0, 0.0, 0.0, 1.740937743334612E9, 0.0, 2025-03-02 19:49:03.334
19.0, 18097.82750580639, 5115.397884297119, 0.0, 0.0, 0.0, 0.0, 0.0, 11047.75202843571, 0.034, -0.026000000000000002, 0.992, 192.0, 0.0, 0.0, 0.0, 0.0, 0.0, 0.0, 0.0, 0.0, 0.0, 1.740937743334667E9, 0.0, 2025-03-02 19:49:03.334
20.0, 18189.447306328693, 5359.30011979343, 0.0, 0.0, 0.0, 0.0, 0.0, 11340.58223254469, 0.034, -0.026000000000000002, 0.992, 192.0, 0.0, 0.0, 0.0, 0.0, 0.0, 0.0, 0.0, 0.0, 0.0, 1.740937743334727E9, 0.0, 2025-03-02 19:49:03.334
21.0, 17954.12814070322, 5317.9493925511115, 0.0, 0.0, 0.0, 0.0, 0.0, 13371.21586456488, 0.034, -0.026000000000000002, 0.992, 192.0, 0.0, 0.0, 0.0, 0.0, 0.0, 0.0, 0.0, 0.0, 0.0, 1.740937743334755E9, 0.0, 2025-03-02 19:49:03.334
22.0, 17849.924308052578, 5084.53012520434, 0.0, 0.0, 0.0, 0.0, 0.0, 13121.479823765734, 0.034, -0.026000000000000002, 0.992, 192.0, 0.0, 0.0, 0.0, 0.0, 0.0, 0.0, 0.0, 0.0, 0.0, 1.74093774333478E9, 0.0, 2025-03-02 19:49:03.334
23.0, 17884.390698002662, 5061.999566793391, 0.0, 0.0, 0.0, 0.0, 0.0, 12820.960619564132, 0.034, -0.026000000000000002, 0.992, 192.0, 0.0, 0.0, 0.0, 0.0, 0.0, 0.0, 0.0, 0.0, 0.0, 1.740937743334805E9, 0.0, 2025-03-02 19:49:03.334
24.0, 18080.706069553624, 5108.625305727161, 0.0, 0.0, 0.0, 0.0, 0.0, 11042.678182444357, 0.034, -0.026000000000000002, 0.992, 192.0, 0.0, 0.0, 0.0, 0.0, 0.0, 0.0, 0.0, 0.0, 0.0, 1.74093774333483E9, 0.0, 2025-03-02 19:49:03.334
25.0, 18194.565855808956, 5351.253491789519, 0.0, 0.0, 0.0, 0.0, 0.0, 11286.602769685123, 0.034, -0.026000000000000002, 0.992, 192.0, 0.0, 0.0, 0.0, 0.0, 0.0, 0.0, 0.0, 0.0, 0.0, 1.740937743334867E9, 0.0, 2025-03-02 19:49:03.334
26.0, 17966.533358875913, 5333.193282269631, 0.0, 0.0, 0.0, 0.0, 0.0, 13360.509378970788, 0.034, -0.026000000000000002, 0.992, 192.0, 0.0, 0.0, 0.0, 0.0, 0.0, 0.0, 0.0, 0.0, 0.0, 1.740937743334913E9, 0.0, 2025-03-02 19:49:03.334
27.0, 17861.72602912498, 5112.179233095555, 0.0, 0.0, 0.0, 0.0, 0.0, 13152.995783447717, 0.03, -0.024, 0.992, 192.0, 0.0, 240.0, 255.0, 64.0, 31.0, 0.0, 0.0, 0.0, 0.0, 1.740937743334951E9, 0.0, 2025-03-02 19:49:03.334
28.0, 17901.132154599687, 5077.846953612203, 0.0, 0.0, 0.0, 0.0, 0.0, 12858.377439782314, 0.03, -0.024, 0.992, 192.0, 0.0, 0.0, 0.0, 0.0, 0.0, 0.0, 0.0, 0.0, 0.0, 1.740937743334995E9, 0.0, 2025-03-02 19:49:03.334
29.0, 18081.24251142055, 5106.658352215094, 0.0, 0.0, 0.0, 0.0, 0.0, 11052.669412215879, 0.03, -0.024, 0.992, 192.0, 0.0, 0.0, 0.0, 0.0, 0.0, 0.0, 0.0, 0.0, 0.0, 1.74093774333504E9, 0.0, 2025-03-02 19:49:03.335
30.0, 18186.094544660395, 5358.182532570664, 0.0, 0.0, 0.0, 0.0, 0.0, 11207.142318146505, 0.03, -0.024, 0.992, 192.0, 0.0, 0.0, 0.0, 0.0, 0.0, 0.0, 0.0, 0.0, 0.0, 1.740937743335085E9, 0.0, 2025-03-02 19:49:03.335
31.0, 17948.942535989587, 5343.385677741251, 0.0, 0.0, 0.0, 0.0, 0.0, 13342.985611317828, 0.03, -0.024, 0.992, 192.0, 0.0, 0.0, 0.0, 0.0, 0.0, 0.0, 0.0, 0.0, 0.0, 1.740937743394802E9, 0.0, 2025-03-02 19:49:03.394
32.0, 17849.38786618565, 5129.747704237426, 0.0, 0.0, 0.0, 0.0, 0.0, 13205.835307340063, 0.03, -0.024, 0.992, 192.0, 0.0, 0.0, 0.0, 0.0, 0.0, 0.0, 0.0, 0.0, 0.0, 1.740937743394859E9, 0.0, 2025-03-02 19:49:03.394
33.0, 17882.379041001685, 5096.8906398881245, 0.0, 0.0, 0.0, 0.0, 0.0, 12909.339417140416, 0.03, -0.024, 0.992, 192.0, 0.0, 0.0, 0.0, 0.0, 0.0, 0.0, 0.0, 0.0, 0.0, 1.7409377433949E9, 0.0, 2025-03-02 19:49:03.394
34.0, 18071.184226415662, 5102.098596346212, 0.0, 0.0, 0.0, 0.0, 0.0, 11011.65396114039, 0.03, -0.024, 0.992, 192.0, 0.0, 0.0, 0.0, 0.0, 0.0, 0.0, 0.0, 0.0, 0.0, 1.740937743394939E9, 0.0, 2025-03-02 19:49:03.394
35.0, 18199.147963422296, 5359.635395960259, 0.0, 0.0, 0.0, 0.0, 0.0, 11060.537226264147, 0.03, -0.024, 0.992, 192.0, 0.0, 0.0, 0.0, 0.0, 0.0, 0.0, 0.0, 0.0, 0.0, 1.740937743395041E9, 0.0, 2025-03-02 19:49:03.395
36.0, 17979.586777637815, 5397.141623156264, 0.0, 0.0, 0.0, 0.0, 0.0, 13326.73589309882, 0.03, -0.024, 0.992, 192.0, 0.0, 0.0, 0.0, 0.0, 0.0, 0.0, 0.0, 0.0, 0.0, 1.740937743395086E9, 0.0, 2025-03-02 19:49:03.395
37.0, 17852.137130753654, 5146.153884667621, 0.0, 0.0, 0.0, 0.0, 0.0, 13232.076255330594, 0.034, -0.024, 0.992, 192.0, 1.0, 16.0, 255.0, 64.0, 31.0, 0.0, 0.0, 0.0, 0.0, 1.740937743395137E9, 0.0, 2025-03-02 19:49:03.395
38.0, 17877.506360710428, 5079.970369335458, 0.0, 0.0, 0.0, 0.0, 0.0, 12901.449251347693, 0.034, -0.024, 0.992, 192.0, 0.0, 0.0, 0.0, 0.0, 0.0, 0.0, 0.0, 0.0, 0.0, 1.740937743395189E9, 0.0, 2025-03-02 19:49:03.395
39.0, 18071.63126130477, 5100.9363056345355, 0.0, 0.0, 0.0, 0.0, 0.0, 10970.012661220153, 0.034, -0.024, 0.992, 192.0, 0.0, 0.0, 0.0, 0.0, 0.0, 0.0, 0.0, 0.0, 0.0, 1.74093774339525E9, 0.0, 2025-03-02 19:49:03.395
40.0, 18198.723280277645, 5361.714108194603, 0.0, 0.0, 0.0, 0.0, 0.0, 11000.142812745908, 0.034, -0.024, 0.992, 192.0, 0.0, 0.0, 0.0, 0.0, 0.0, 0.0, 0.0, 0.0, 0.0, 1.740937743395295E9, 0.0, 2025-03-02 19:49:03.395
41.0, 17965.482826886517, 5382.9706171716, 0.0, 0.0, 0.0, 0.0, 0.0, 13341.68921013942, 0.034, -0.024, 0.992, 192.0, 0.0, 0.0, 0.0, 0.0, 0.0, 0.0, 0.0, 0.0, 0.0, 1.740937743395345E9, 0.0, 2025-03-02 19:49:03.395
42.0, 17849.00788652991, 5139.671878775583, 0.0, 0.0, 0.0, 0.0, 0.0, 13256.05967713114, 0.034, -0.024, 0.992, 192.0, 0.0, 0.0, 0.0, 0.0, 0.0, 0.0, 0.0, 0.0, 0.0, 1.740937743395372E9, 0.0, 2025-03-02 19:49:03.395
43.0, 17878.646299677646, 5077.310511745276, 0.0, 0.0, 0.0, 0.0, 0.0, 12910.50170785209, 0.034, -0.024, 0.992, 192.0, 0.0, 0.0, 0.0, 0.0, 0.0, 0.0, 0.0, 0.0, 0.0, 1.740937743395397E9, 0.0, 2025-03-02 19:49:03.395
44.0, 18081.130752698275, 5097.337674777231, 0.0, 0.0, 0.0, 0.0, 0.0, 10960.177893659818, 0.034, -0.024, 0.992, 192.0, 0.0, 0.0, 0.0, 0.0, 0.0, 0.0, 0.0, 0.0, 0.0, 1.740937743395422E9, 0.0, 2025-03-02 19:49:03.395
45.0, 18213.833059529432, 5373.15820135572, 0.0, 0.0, 0.0, 0.0, 0.0, 10961.697812282779, 0.034, -0.024, 0.992, 192.0, 0.0, 0.0, 0.0, 0.0, 0.0, 0.0, 0.0, 0.0, 0.0, 1.740937743395446E9, 0.0, 2025-03-02 19:49:03.395
46.0, 17975.451704913583, 5413.324286141907, 0.0, 0.0, 0.0, 0.0, 0.0, 13376.535579745243, 0.034, -0.024, 0.992, 192.0, 0.0, 0.0, 0.0, 0.0, 0.0, 0.0, 0.0, 0.0, 0.0, 1.740937743455028E9, 0.0, 2025-03-02 19:49:03.455
47.0, 17841.497700392927, 5153.284091148865, 0.0, 0.0, 0.0, 0.0, 0.0, 13313.5930673591, 0.036000000000000004, -0.03, 0.994, 192.0, 1.0, 32.0, 255.0, 16.0, 31.0, 16.0, 0.0, 0.0, 0.0, 1.740937743455079E9, 0.0, 2025-03-02 19:49:03.455
48.0, 17863.53652042586, 5091.034482840834, 0.0, 0.0, 0.0, 0.0, 0.0, 12967.90098761332, 0.036000000000000004, -0.03, 0.994, 192.0, 0.0, 0.0, 0.0, 0.0, 0.0, 0.0, 0.0, 0.0, 0.0, 1.740937743455108E9, 0.0, 2025-03-02 19:49:03.455
49.0, 18059.583671043358, 5093.24730554191, 0.0, 0.0, 0.0, 0.0, 0.0, 10991.671501597346, 0.036000000000000004, -0.03, 0.994, 192.0, 0.0, 0.0, 0.0, 0.0, 0.0, 0.0, 0.0, 0.0, 0.0, 1.740937743455134E9, 0.0, 2025-03-02 19:49:03.455
50.0, 18207.97690248214, 5362.764640184002, 0.0, 0.0, 0.0, 0.0, 0.0, 10939.524881783114, 0.036000000000000004, -0.03, 0.994, 192.0, 0.0, 0.0, 0.0, 0.0, 0.0, 0.0, 0.0, 0.0, 0.0, 1.740937743455158E9, 0.0, 2025-03-02 19:49:03.455
51.0, 17973.574158379335, 5413.413693119728, 0.0, 0.0, 0.0, 0.0, 0.0, 13419.22741165488, 0.036000000000000004, -0.03, 0.994, 192.0, 0.0, 0.0, 0.0, 0.0, 0.0, 0.0, 0.0, 0.0, 0.0, 1.740937743455183E9, 0.0, 2025-03-02 19:49:03.455
52.0, 17836.647371846124, 5143.046992188334, 0.0, 0.0, 0.0, 0.0, 0.0, 13401.301312601723, 0.036000000000000004, -0.03, 0.994, 192.0, 0.0, 0.0, 0.0, 0.0, 0.0, 0.0, 0.0, 0.0, 0.0, 1.74093774345529E9, 0.0, 2025-03-02 19:49:03.455
53.0, 17859.401447701628, 5088.173459550555, 0.0, 0.0, 0.0, 0.0, 0.0, 13071.143695252384, 0.036000000000000004, -0.03, 0.994, 192.0, 0.0, 0.0, 0.0, 0.0, 0.0, 0.0, 0.0, 0.0, 0.0, 1.740937743455317E9, 0.0, 2025-03-02 19:49:03.455
54.0, 18054.398066329726, 5090.9003723741025, 0.0, 0.0, 0.0, 0.0, 0.0, 11074.887046204454, 0.036000000000000004, -0.03, 0.994, 192.0, 0.0, 0.0, 0.0, 0.0, 0.0, 0.0, 0.0, 0.0, 0.0, 1.740937743455341E9, 0.0, 2025-03-02 19:49:03.455
55.0, 18197.516286077058, 5354.673308691181, 0.0, 0.0, 0.0, 0.0, 0.0, 10993.392585920405, 0.036000000000000004, -0.03, 0.994, 192.0, 0.0, 0.0, 0.0, 0.0, 0.0, 0.0, 0.0, 0.0, 0.0, 1.740937743455366E9, 0.0, 2025-03-02 19:49:03.455
56.0, 17953.8375680253, 5407.132852927787, 0.0, 0.0, 0.0, 0.0, 0.0, 13523.654761750075, 0.028, -0.032, 0.996, 192.0, 0.0, 224.0, 255.0, 0.0, 31.0, 32.0, 0.0, 0.0, 0.0, 1.740937743455391E9, 0.0, 2025-03-02 19:49:03.455
57.0, 17807.65715928759, 5139.9177479645905, 0.0, 0.0, 0.0, 0.0, 0.0, 13540.351514858188, 0.028, -0.032, 0.996, 192.0, 0.0, 0.0, 0.0, 0.0, 0.0, 0.0, 0.0, 0.0, 0.0, 1.740937743455423E9, 0.0, 2025-03-02 19:49:03.455
58.0, 17823.325732150763, 5072.795459365304, 0.0, 0.0, 0.0, 0.0, 0.0, 13211.579705665077, 0.028, -0.032, 0.996, 192.0, 0.0, 0.0, 0.0, 0.0, 0.0, 0.0, 0.0, 0.0, 0.0, 1.740937743455448E9, 0.0, 2025-03-02 19:49:03.455
59.0, 18016.824783900356, 5055.919892301547, 0.0, 0.0, 0.0, 0.0, 0.0, 11191.585504005612, 0.028, -0.032, 0.996, 192.0, 0.0, 0.0, 0.0, 0.0, 0.0, 0.0, 0.0, 0.0, 0.0, 1.740937743455472E9, 0.0, 2025-03-02 19:49:03.455
60.0, 18170.82830319742, 5336.434285215651, 0.0, 0.0, 0.0, 0.0, 0.0, 11042.432313255349, 0.028, -0.032, 0.996, 192.0, 0.0, 0.0, 0.0, 0.0, 0.0, 0.0, 0.0, 0.0, 0.0, 1.740937743455497E9, 0.0, 2025-03-02 19:49:03.455
61.0, 17941.566460319336, 5398.0133411900215, 0.0, 0.0, 0.0, 0.0, 0.0, 13624.215260054501, 0.028, -0.032, 0.996, 192.0, 0.0, 0.0, 0.0, 0.0, 0.0, 0.0, 0.0, 0.0, 0.0, 1.740937743515224E9, 0.0, 2025-03-02 19:49:03.515
62.0, 17793.396746325107, 5131.155864138111, 0.0, 0.0, 0.0, 0.0, 0.0, 13685.928426495604, 0.028, -0.032, 0.996, 192.0, 0.0, 0.0, 0.0, 0.0, 0.0, 0.0, 0.0, 0.0, 0.0, 1.740937743515292E9, 0.0, 2025-03-02 19:49:03.515
63.0, 17809.33354012174, 5078.025767567846, 0.0, 0.0, 0.0, 0.0, 0.0, 13359.92823361495, 0.028, -0.032, 0.996, 192.0, 0.0, 0.0, 0.0, 0.0, 0.0, 0.0, 0.0, 0.0, 0.0, 1.740937743515339E9, 0.0, 2025-03-02 19:49:03.515
64.0, 18007.36999599576, 5067.5427994183065, 0.0, 0.0, 0.0, 0.0, 0.0, 11324.24310734786, 0.028, -0.032, 0.996, 192.0, 0.0, 0.0, 0.0, 0.0, 0.0, 0.0, 0.0, 0.0, 0.0, 1.740937743515385E9, 0.0, 2025-03-02 19:49:03.515
65.0, 18157.394904779783, 5334.243814259031, 0.0, 0.0, 0.0, 0.0, 0.0, 11127.435997418881, 0.028, -0.032, 0.996, 192.0, 0.0, 0.0, 0.0, 0.0, 0.0, 0.0, 0.0, 0.0, 0.0, 1.740937743515431E9, 0.0, 2025-03-02 19:49:03.515
66.0, 17915.727843729, 5379.573152014394, 0.0, 0.0, 0.0, 0.0, 0.0, 13755.017668606957, 0.032, -0.026000000000000002, 0.994, 192.0, 1.0, 0.0, 255.0, 48.0, 31.0, 16.0, 0.0, 0.0, 0.0, 1.740937743515477E9, 0.0, 2025-03-02 19:49:03.515
67.0, 17775.85062692769, 5104.1549568361, 0.0, 0.0, 0.0, 0.0, 0.0, 13837.1156259913, 0.032, -0.026000000000000002, 0.994, 192.0, 0.0, 0.0, 0.0, 0.0, 0.0, 0.0, 0.0, 0.0, 0.0, 1.740937743515525E9, 0.0, 2025-03-02 19:49:03.515
68.0, 17803.231513885443, 5045.302813685276, 0.0, 0.0, 0.0, 0.0, 0.0, 13507.3379882977, 0.032, -0.026000000000000002, 0.994, 192.0, 0.0, 0.0, 0.0, 0.0, 0.0, 0.0, 0.0, 0.0, 0.0, 1.740937743515571E9, 0.0, 2025-03-02 19:49:03.515
69.0, 17985.331175962827, 5029.544833844285, 0.0, 0.0, 0.0, 0.0, 0.0, 11417.40517823758, 0.032, -0.026000000000000002, 0.994, 192.0, 0.0, 0.0, 0.0, 0.0, 0.0, 0.0, 0.0, 0.0, 0.0, 1.740937743515688E9, 0.0, 2025-03-02 19:49:03.515
70.0, 18142.30747727245, 5307.511127890483, 0.0, 0.0, 0.0, 0.0, 0.0, 11103.072595962596, 0.032, -0.026000000000000002, 0.994, 192.0, 0.0, 0.0, 0.0, 0.0, 0.0, 0.0, 0.0, 0.0, 0.0, 1.740937743515735E9, 0.0, 2025-03-02 19:49:03.515
71.0, 17908.463526781026, 5377.583846757871, 0.0, 0.0, 0.0, 0.0, 0.0, 13704.100394737769, 0.032, -0.026000000000000002, 0.994, 192.0, 0.0, 0.0, 0.0, 0.0, 0.0, 0.0, 0.0, 0.0, 0.0, 1.740937743515781E9, 0.0, 2025-03-02 19:49:03.515
72.0, 17773.458990270974, 5106.4571865149965, 0.0, 0.0, 0.0, 0.0, 0.0, 13786.287759099932, 0.032, -0.026000000000000002, 0.994, 192.0, 0.0, 0.0, 0.0, 0.0, 0.0, 0.0, 0.0, 0.0, 0.0, 1.740937743515827E9, 0.0, 2025-03-02 19:49:03.515
73.0, 17798.962330694478, 5042.307679928265, 0.0, 0.0, 0.0, 0.0, 0.0, 13392.271207841779, 0.032, -0.026000000000000002, 0.994, 192.0, 0.0, 0.0, 0.0, 0.0, 0.0, 0.0, 0.0, 0.0, 0.0, 1.740937743515874E9, 0.0, 2025-03-02 19:49:03.515
74.0, 17989.80152485389, 5031.5564908452625, 0.0, 0.0, 0.0, 0.0, 0.0, 11207.857573969075, 0.032, -0.026000000000000002, 0.994, 192.0, 0.0, 0.0, 0.0, 0.0, 0.0, 0.0, 0.0, 0.0, 0.0, 1.74093774351592E9, 0.0, 2025-03-02 19:49:03.515
75.0, 18154.667991956234, 5314.261354715986, 0.0, 0.0, 0.0, 0.0, 0.0, 10779.79931590549, 0.032, -0.026000000000000002, 0.994, 192.0, 0.0, 0.0, 0.0, 0.0, 0.0, 0.0, 0.0, 0.0, 0.0, 1.740937743515967E9, 0.0, 2025-03-02 19:49:03.515
76.0, 17969.930824033123, 5426.914146770733, 0.0, 0.0, 0.0, 0.0, 0.0, 13381.609425736598, 0.03, -0.026000000000000002, 0.99, 192.0, 0.0, 240.0, 255.0, 48.0, 30.0, 240.0, 0.0, 0.0, 0.0, 1.740937743574112E9, 0.0, 2025-03-02 19:49:03.574
77.0, 17846.392732428638, 5159.6990418075375, 0.0, 0.0, 0.0, 0.0, 0.0, 13467.23895874488, 0.03, -0.026000000000000002, 0.99, 192.0, 0.0, 0.0, 0.0, 0.0, 0.0, 0.0, 0.0, 0.0, 0.0, 1.740937743574232E9, 0.0, 2025-03-02 19:49:03.574
78.0, 17851.935965053555, 5086.631189183139, 0.0, 0.0, 0.0, 0.0, 0.0, 13076.977500555218, 0.03, -0.026000000000000002, 0.99, 192.0, 0.0, 0.0, 0.0, 0.0, 0.0, 0.0, 0.0, 0.0, 0.0, 1.740937743574278E9, 0.0, 2025-03-02 19:49:03.574
79.0, 18040.584688256346, 5080.193886780011, 0.0, 0.0, 0.0, 0.0, 0.0, 10943.771713229622, 0.03, -0.026000000000000002, 0.99, 192.0, 0.0, 0.0, 0.0, 0.0, 0.0, 0.0, 0.0, 0.0, 0.0, 1.740937743574313E9, 0.0, 2025-03-02 19:49:03.574
80.0, 18231.55799288249, 5380.690739237159, 0.0, 0.0, 0.0, 0.0, 0.0, 10551.856225950269, 0.03, -0.026000000000000002, 0.99, 192.0, 0.0, 0.0, 0.0, 0.0, 0.0, 0.0, 0.0, 0.0, 0.0, 1.740937743574354E9, 0.0, 2025-03-02 19:49:03.574
81.0, 18013.337911765328, 5497.165679593763, 0.0, 0.0, 0.0, 0.0, 0.0, 13256.797284698163, 0.03, -0.026000000000000002, 0.99, 192.0, 0.0, 0.0, 0.0, 0.0, 0.0, 0.0, 0.0, 0.0, 0.0, 1.740937743574404E9, 0.0, 2025-03-02 19:49:03.574
82.0, 17862.888319836657, 5225.524929228417, 0.0, 0.0, 0.0, 0.0, 0.0, 13387.376175806068, 0.03, -0.026000000000000002, 0.99, 192.0, 0.0, 0.0, 0.0, 0.0, 0.0, 0.0, 0.0, 0.0, 0.0, 1.740937743574437E9, 0.0, 2025-03-02 19:49:03.574
83.0, 17888.414012004618, 5147.942024224046, 0.0, 0.0, 0.0, 0.0, 0.0, 13012.6715317573, 0.03, -0.026000000000000002, 0.99, 192.0, 0.0, 0.0, 0.0, 0.0, 0.0, 0.0, 0.0, 0.0, 0.0, 1.740937743574482E9, 0.0, 2025-03-02 19:49:03.574
84.0, 18074.49228459505, 5123.265698345387, 0.0, 0.0, 0.0, 0.0, 0.0, 10895.603703928437, 0.03, -0.026000000000000002, 0.99, 192.0, 0.0, 0.0, 0.0, 0.0, 0.0, 0.0, 0.0, 0.0, 0.0, 1.740937743574524E9, 0.0, 2025-03-02 19:49:03.574
85.0, 18238.822309830466, 5403.154242414742, 0.0, 0.0, 0.0, 0.0, 0.0, 10479.056594259333, 0.03, -0.026000000000000002, 0.99, 192.0, 0.0, 0.0, 0.0, 0.0, 0.0, 0.0, 0.0, 0.0, 0.0, 1.740937743574557E9, 0.0, 2025-03-02 19:49:03.574
86.0, 18026.637199716235, 5514.868261202367, 0.0, 0.0, 0.0, 0.0, 0.0, 13225.840118627564, 0.032, -0.03, 0.994, 192.0, 1.0, 0.0, 255.0, 16.0, 31.0, 16.0, 0.0, 0.0, 0.0, 1.740937743574698E9, 0.0, 2025-03-02 19:49:03.574
87.0, 17884.994195102954, 5237.550167745372, 0.0, 0.0, 0.0, 0.0, 0.0, 13386.906789172506, 0.032, -0.03, 0.994, 192.0, 0.0, 0.0, 0.0, 0.0, 0.0, 0.0, 0.0, 0.0, 0.0, 1.740937743574735E9, 0.0, 2025-03-02 19:49:03.574
88.0, 17897.846448164757, 5149.104314935722, 0.0, 0.0, 0.0, 0.0, 0.0, 13027.222517397704, 0.032, -0.03, 0.994, 192.0, 0.0, 0.0, 0.0, 0.0, 0.0, 0.0, 0.0, 0.0, 0.0, 1.740937743574776E9, 0.0, 2025-03-02 19:49:03.574
89.0, 18088.797401046446, 5125.813797213292, 0.0, 0.0, 0.0, 0.0, 0.0, 10911.272276791606, 0.032, -0.03, 0.994, 192.0, 0.0, 0.0, 0.0, 0.0, 0.0, 0.0, 0.0, 0.0, 0.0, 1.740937743574809E9, 0.0, 2025-03-02 19:49:03.574
90.0, 18254.736751882643, 5405.411768604728, 0.0, 0.0, 0.0, 0.0, 0.0, 10463.008041740422, 0.032, -0.03, 0.994, 192.0, 0.0, 0.0, 0.0, 0.0, 0.0, 0.0, 0.0, 0.0, 0.0, 1.74093774357485E9, 0.0, 2025-03-02 19:49:03.574
91.0, 18047.7595982265, 5519.495072304616, 0.0, 0.0, 0.0, 0.0, 0.0, 13228.611734940021, 0.032, -0.03, 0.994, 192.0, 0.0, 0.0, 0.0, 0.0, 0.0, 0.0, 0.0, 0.0, 0.0, 1.740937743634375E9, 0.0, 2025-03-02 19:49:03.634
92.0, 17909.40230004815, 5242.355792803263, 0.0, 0.0, 0.0, 0.0, 0.0, 13409.549106305732, 0.032, -0.03, 0.994, 192.0, 0.0, 0.0, 0.0, 0.0, 0.0, 0.0, 0.0, 0.0, 0.0, 1.740937743634425E9, 0.0, 2025-03-02 19:49:03.634
93.0, 17896.706509197535, 5161.375422641686, 0.0, 0.0, 0.0, 0.0, 0.0, 13037.705485547243, 0.032, -0.03, 0.994, 192.0, 0.0, 0.0, 0.0, 0.0, 0.0, 0.0, 0.0, 0.0, 0.0, 1.740937743634453E9, 0.0, 2025-03-02 19:49:03.634
94.0, 18067.67500253618, 5138.755457252915, 0.0, 0.0, 0.0, 0.0, 0.0, 10910.199393057752, 0.032, -0.03, 0.994, 192.0, 0.0, 0.0, 0.0, 0.0, 0.0, 0.0, 0.0, 0.0, 0.0, 1.740937743634479E9, 0.0, 2025-03-02 19:49:03.634
95.0, 18240.878670320355, 5406.752873272047, 0.0, 0.0, 0.0, 0.0, 0.0, 10434.710733260004, 0.032, -0.03, 0.994, 192.0, 0.0, 0.0, 0.0, 0.0, 0.0, 0.0, 0.0, 0.0, 0.0, 1.740937743634504E9, 0.0, 2025-03-02 19:49:03.634
96.0, 18032.89568816372, 5523.339572350928, 0.0, 0.0, 0.0, 0.0, 0.0, 13222.75557789273, 0.032, -0.026000000000000002, 0.992, 192.0, 1.0, 0.0, 255.0, 48.0, 31.0, 0.0, 0.0, 0.0, 0.0, 1.740937743634529E9, 0.0, 2025-03-02 19:49:03.634
97.0, 17875.740572898456, 5248.569577761838, 0.0, 0.0, 0.0, 0.0, 0.0, 13415.762891264307, 0.032, -0.026000000000000002, 0.992, 192.0, 0.0, 0.0, 0.0, 0.0, 0.0, 0.0, 0.0, 0.0, 0.0, 1.740937743634577E9, 0.0, 2025-03-02 19:49:03.634
98.0, 17889.06221259382, 5165.219922687998, 0.0, 0.0, 0.0, 0.0, 0.0, 13060.258395702649, 0.032, -0.026000000000000002, 0.992, 192.0, 0.0, 0.0, 0.0, 0.0, 0.0, 0.0, 0.0, 0.0, 0.0, 1.740937743634626E9, 0.0, 2025-03-02 19:49:03.634
99.0, 18070.647784548735, 5128.138378636644, 0.0, 0.0, 0.0, 0.0, 0.0, 10945.40339057486, 0.032, -0.026000000000000002, 0.992, 192.0, 0.0, 0.0, 0.0, 0.0, 0.0, 0.0, 0.0, 0.0, 0.0, 1.740937743634672E9, 0.0, 2025-03-02 19:49:03.634
100.0, 18240.811615086986, 5404.271829637508, 0.0, 0.0, 0.0, 0.0, 0.0, 10435.291878615843, 0.032, -0.026000000000000002, 0.992, 192.0, 0.0, 0.0, 0.0, 0.0, 0.0, 0.0, 0.0, 0.0, 0.0, 1.740937743634734E9, 0.0, 2025-03-02 19:49:03.634
101.0, 18036.114339365286, 5534.694258534224, 0.0, 0.0, 0.0, 0.0, 0.0, 13248.95182239435, 0.032, -0.026000000000000002, 0.992, 192.0, 0.0, 0.0, 0.0, 0.0, 0.0, 0.0, 0.0, 0.0, 0.0, 1.74093774363478E9, 0.0, 2025-03-02 19:49:03.634
102.0, 17901.199209833052, 5267.769726248947, 0.0, 0.0, 0.0, 0.0, 0.0, 13470.658775646541, 0.032, -0.026000000000000002, 0.992, 192.0, 0.0, 0.0, 0.0, 0.0, 0.0, 0.0, 0.0, 0.0, 0.0, 1.740937743634831E9, 0.0, 2025-03-02 19:49:03.634
103.0, 17898.137020842674, 5177.759251327426, 0.0, 0.0, 0.0, 0.0, 0.0, 13108.336998026014, 0.032, -0.026000000000000002, 0.992, 192.0, 0.0, 0.0, 0.0, 0.0, 0.0, 0.0, 0.0, 0.0, 0.0, 1.740937743634929E9, 0.0, 2025-03-02 19:49:03.634
104.0, 18071.407743860214, 5129.926518193069, 0.0, 0.0, 0.0, 0.0, 0.0, 10986.910580028365, 0.032, -0.026000000000000002, 0.992, 192.0, 0.0, 0.0, 0.0, 0.0, 0.0, 0.0, 0.0, 0.0, 0.0, 1.740937743634985E9, 0.0, 2025-03-02 19:49:03.634
105.0, 18255.34024898294, 5422.68966706868, 0.0, 0.0, 0.0, 0.0, 0.0, 10445.551329320828, 0.028, -0.024, 0.99, 192.0, 0.0, 224.0, 255.0, 64.0, 30.0, 240.0, 0.0, 0.0, 0.0, 1.740937743635038E9, 0.0, 2025-03-02 19:49:03.635
106.0, 18047.491377293038, 5538.605813813903, 0.0, 0.0, 0.0, 0.0, 0.0, 13272.331747094602, 0.028, -0.024, 0.99, 192.0, 0.0, 0.0, 0.0, 0.0, 0.0, 0.0, 0.0, 0.0, 0.0, 1.740937743694734E9, 0.0, 2025-03-02 19:49:03.694
107.0, 17883.943663113554, 5236.2984700558745, 0.0, 0.0, 0.0, 0.0, 0.0, 13500.72187193893, 0.028, -0.024, 0.99, 192.0, 0.0, 0.0, 0.0, 0.0, 0.0, 0.0, 0.0, 0.0, 0.0, 1.740937743694782E9, 0.0, 2025-03-02 19:49:03.694
108.0, 17885.95532011453, 5145.662146289605, 0.0, 0.0, 0.0, 0.0, 0.0, 13126.441911034814, 0.028, -0.024, 0.99, 192.0, 0.0, 0.0, 0.0, 0.0, 0.0, 0.0, 0.0, 0.0, 0.0, 1.740937743694809E9, 0.0, 2025-03-02 19:49:03.694
109.0, 18071.608909560313, 5110.547555750318, 0.0, 0.0, 0.0, 0.0, 0.0, 10995.717167343757, 0.028, -0.024, 0.99, 192.0, 0.0, 0.0, 0.0, 0.0, 0.0, 0.0, 0.0, 0.0, 0.0, 1.740937743694835E9, 0.0, 2025-03-02 19:49:03.694
110.0, 18245.23726048914, 5395.599352788849, 0.0, 0.0, 0.0, 0.0, 0.0, 10420.338561575241, 0.028, -0.024, 0.99, 192.0, 0.0, 0.0, 0.0, 0.0, 0.0, 0.0, 0.0, 0.0, 0.0, 1.74093774369486E9, 0.0, 2025-03-02 19:49:03.694
111.0, 18033.856813175298, 5546.719497051179, 0.0, 0.0, 0.0, 0.0, 0.0, 13279.350194853569, 0.028, -0.024, 0.99, 192.0, 0.0, 0.0, 0.0, 0.0, 0.0, 0.0, 0.0, 0.0, 0.0, 1.740937743694885E9, 0.0, 2025-03-02 19:49:03.694
112.0, 17888.793991660357, 5272.843572240302, 0.0, 0.0, 0.0, 0.0, 0.0, 13527.3427995852, 0.028, -0.024, 0.99, 192.0, 0.0, 0.0, 0.0, 0.0, 0.0, 0.0, 0.0, 0.0, 0.0, 1.740937743694909E9, 0.0, 2025-03-02 19:49:03.694
113.0, 17894.53838998537, 5159.386117385164, 0.0, 0.0, 0.0, 0.0, 0.0, 13150.961774702284, 0.028, -0.024, 0.99, 192.0, 0.0, 0.0, 0.0, 0.0, 0.0, 0.0, 0.0, 0.0, 0.0, 1.740937743694934E9, 0.0, 2025-03-02 19:49:03.694
114.0, 18072.972365972088, 5114.235593585443, 0.0, 0.0, 0.0, 0.0, 0.0, 11041.247670799217, 0.028, -0.024, 0.99, 192.0, 0.0, 0.0, 0.0, 0.0, 0.0, 0.0, 0.0, 0.0, 0.0, 1.740937743694959E9, 0.0, 2025-03-02 19:49:03.694
115.0, 18243.650286632812, 5396.336960355873, 0.0, 0.0, 0.0, 0.0, 0.0, 10424.764206977392, 0.032, -0.024, 0.992, 192.0, 1.0, 0.0, 255.0, 64.0, 31.0, 0.0, 0.0, 0.0, 0.0, 1.740937743694984E9, 0.0, 2025-03-02 19:49:03.694
116.0, 18033.499185264016, 5528.7933979980235, 0.0, 0.0, 0.0, 0.0, 0.0, 13277.96438669734, 0.032, -0.024, 0.992, 192.0, 0.0, 0.0, 0.0, 0.0, 0.0, 0.0, 0.0, 0.0, 0.0, 1.74093774369501E9, 0.0, 2025-03-02 19:49:03.695
117.0, 17881.35086075674, 5232.968060132034, 0.0, 0.0, 0.0, 0.0, 0.0, 13538.518671812853, 0.032, -0.024, 0.992, 192.0, 0.0, 0.0, 0.0, 0.0, 0.0, 0.0, 0.0, 0.0, 0.0, 1.740937743695035E9, 0.0, 2025-03-02 19:49:03.695
118.0, 17893.1749335736, 5142.868178232691, 0.0, 0.0, 0.0, 0.0, 0.0, 13162.025888207661, 0.032, -0.024, 0.992, 192.0, 0.0, 0.0, 0.0, 0.0, 0.0, 0.0, 0.0, 0.0, 0.0, 1.74093774369506E9, 0.0, 2025-03-02 19:49:03.695
119.0, 18067.71970602509, 5114.995552896923, 0.0, 0.0, 0.0, 0.0, 0.0, 11049.495464503225, 0.032, -0.024, 0.992, 192.0, 0.0, 0.0, 0.0, 0.0, 0.0, 0.0, 0.0, 0.0, 0.0, 1.740937743695085E9, 0.0, 2025-03-02 19:49:03.695
120.0, 18243.247955232615, 5397.678065023192, 0.0, 0.0, 0.0, 0.0, 0.0, 10423.087826143244, 0.032, -0.024, 0.992, 192.0, 0.0, 0.0, 0.0, 0.0, 0.0, 0.0, 0.0, 0.0, 0.0, 1.740937743695154E9, 0.0, 2025-03-02 19:49:03.695
121.0, 18036.13669110974, 5548.686450563247, 0.0, 0.0, 0.0, 0.0, 0.0, 13300.293779408192, 0.032, -0.024, 0.992, 192.0, 0.0, 0.0, 0.0, 0.0, 0.0, 0.0, 0.0, 0.0, 0.0, 1.740937743754936E9, 0.0, 2025-03-02 19:49:03.754
122.0, 17883.63073869118, 5254.2022173645755, 0.0, 0.0, 0.0, 0.0, 0.0, 13559.976346489948, 0.032, -0.024, 0.992, 192.0, 0.0, 0.0, 0.0, 0.0, 0.0, 0.0, 0.0, 0.0, 0.0, 1.740937743755032E9, 0.0, 2025-03-02 19:49:03.755
123.0, 17897.131192342185, 5147.629099801672, 0.0, 0.0, 0.0, 0.0, 0.0, 13181.985996006251, 0.032, -0.024, 0.992, 192.0, 0.0, 0.0, 0.0, 0.0, 0.0, 0.0, 0.0, 0.0, 0.0, 1.740937743755078E9, 0.0, 2025-03-02 19:49:03.755
124.0, 18064.612813545802, 5111.86630867318, 0.0, 0.0, 0.0, 0.0, 0.0, 11084.7665172537, 0.032, -0.024, 0.992, 192.0, 0.0, 0.0, 0.0, 0.0, 0.0, 0.0, 0.0, 0.0, 0.0, 1.74093774375512E9, 0.0, 2025-03-02 19:49:03.755
125.0, 18238.822309830466, 5393.20771613213, 0.0, 0.0, 0.0, 0.0, 0.0, 10416.091730128734, 0.034, -0.026000000000000002, 0.992, 192.0, 1.0, 16.0, 255.0, 48.0, 31.0, 0.0, 0.0, 0.0, 0.0, 1.740937743755164E9, 0.0, 2025-03-02 19:49:03.755
126.0, 18035.5555457539, 5538.806979514001, 0.0, 0.0, 0.0, 0.0, 0.0, 13306.932247511417, 0.034, -0.026000000000000002, 0.992, 192.0, 0.0, 0.0, 0.0, 0.0, 0.0, 0.0, 0.0, 0.0, 0.0, 1.740937743755226E9, 0.0, 2025-03-02 19:49:03.755
127.0, 17891.029166105887, 5264.841647725302, 0.0, 0.0, 0.0, 0.0, 0.0, 13586.440811925033, 0.034, -0.026000000000000002, 0.992, 192.0, 0.0, 0.0, 0.0, 0.0, 0.0, 0.0, 0.0, 0.0, 0.0, 1.740937743755279E9, 0.0, 2025-03-02 19:49:03.755
128.0, 17897.958206887033, 5175.099393737244, 0.0, 0.0, 0.0, 0.0, 0.0, 13210.752691120231, 0.034, -0.026000000000000002, 0.992, 192.0, 0.0, 0.0, 0.0, 0.0, 0.0, 0.0, 0.0, 0.0, 0.0, 1.740937743755322E9, 0.0, 2025-03-02 19:49:03.755
129.0, 18061.170644899685, 5130.686477504549, 0.0, 0.0, 0.0, 0.0, 0.0, 11114.404930401437, 0.034, -0.026000000000000002, 0.992, 192.0, 0.0, 0.0, 0.0, 0.0, 0.0, 0.0, 0.0, 0.0, 0.0, 1.740937743755364E9, 0.0, 2025-03-02 19:49:03.755
130.0, 18250.244051247126, 5413.436044864184, 0.0, 0.0, 0.0, 0.0, 0.0, 10407.06162536879, 0.034, -0.026000000000000002, 0.992, 192.0, 0.0, 0.0, 0.0, 0.0, 0.0, 0.0, 0.0, 0.0, 0.0, 1.740937743755409E9, 0.0, 2025-03-02 19:49:03.755
131.0, 18053.19107212914, 5567.618378116891, 0.0, 0.0, 0.0, 0.0, 0.0, 13310.955561513372, 0.034, -0.026000000000000002, 0.992, 192.0, 0.0, 0.0, 0.0, 0.0, 0.0, 0.0, 0.0, 0.0, 0.0, 1.740937743755453E9, 0.0, 2025-03-02 19:49:03.755
132.0, 17881.932006112576, 5267.322691359841, 0.0, 0.0, 0.0, 0.0, 0.0, 13601.774108621374, 0.034, -0.026000000000000002, 0.992, 192.0, 0.0, 0.0, 0.0, 0.0, 0.0, 0.0, 0.0, 0.0, 0.0, 1.740937743755496E9, 0.0, 2025-03-02 19:49:03.755
133.0, 17887.229369548484, 5165.398736643641, 0.0, 0.0, 0.0, 0.0, 0.0, 13212.429071954379, 0.034, -0.026000000000000002, 0.992, 192.0, 0.0, 0.0, 0.0, 0.0, 0.0, 0.0, 0.0, 0.0, 0.0, 1.74093774375554E9, 0.0, 2025-03-02 19:49:03.755
134.0, 18067.026801946977, 5132.720486249982, 0.0, 0.0, 0.0, 0.0, 0.0, 11137.516634168225, 0.034, -0.026000000000000002, 0.992, 192.0, 0.0, 0.0, 0.0, 0.0, 0.0, 0.0, 0.0, 0.0, 0.0, 1.740937743755585E9, 0.0, 2025-03-02 19:49:03.755
135.0, 18252.27805999256, 5412.139643685776, 0.0, 0.0, 0.0, 0.0, 0.0, 10410.973180648469, 0.034, -0.024, 0.994, 192.0, 1.0, 16.0, 255.0, 64.0, 31.0, 16.0, 0.0, 0.0, 0.0, 1.740937743755631E9, 0.0, 2025-03-02 19:49:03.755
136.0, 18059.67307802118, 5577.34138695495, 0.0, 0.0, 0.0, 0.0, 0.0, 13320.320942440147, 0.034, -0.024, 0.994, 192.0, 0.0, 0.0, 0.0, 0.0, 0.0, 0.0, 0.0, 0.0, 0.0, 1.740937743815195E9, 0.0, 2025-03-02 19:49:03.815
137.0, 17881.753192156935, 5278.587970565316, 0.0, 0.0, 0.0, 0.0, 0.0, 13615.811004139305, 0.034, -0.024, 0.994, 192.0, 0.0, 0.0, 0.0, 0.0, 0.0, 0.0, 0.0, 0.0, 0.0, 1.740937743815325E9, 0.0, 2025-03-02 19:49:03.815
138.0, 17879.495665966948, 5165.666957577105, 0.0, 0.0, 0.0, 0.0, 0.0, 13223.649647670944, 0.034, -0.024, 0.994, 192.0, 0.0, 0.0, 0.0, 0.0, 0.0, 0.0, 0.0, 0.0, 0.0, 1.740937743815372E9, 0.0, 2025-03-02 19:49:03.815
139.0, 18053.347534340326, 5127.668992003083, 0.0, 0.0, 0.0, 0.0, 0.0, 11148.670154651423, 0.034, -0.024, 0.994, 192.0, 0.0, 0.0, 0.0, 0.0, 0.0, 0.0, 0.0, 0.0, 0.0, 1.740937743815415E9, 0.0, 2025-03-02 19:49:03.815
140.0, 18260.123522296373, 5421.54972810146, 0.0, 0.0, 0.0, 0.0, 0.0, 10384.95575010249, 0.034, -0.024, 0.994, 192.0, 0.0, 0.0, 0.0, 0.0, 0.0, 0.0, 0.0, 0.0, 0.0, 1.740937743815457E9, 0.0, 2025-03-02 19:49:03.815
141.0, 18063.249357134027, 5590.77478537259, 0.0, 0.0, 0.0, 0.0, 0.0, 13289.96727346984, 0.034, -0.024, 0.994, 192.0, 0.0, 0.0, 0.0, 0.0, 0.0, 0.0, 0.0, 0.0, 0.0, 1.740937743815501E9, 0.0, 2025-03-02 19:49:03.815
142.0, 17890.20215156104, 5306.661761601182, 0.0, 0.0, 0.0, 0.0, 0.0, 13627.500966489431, 0.034, -0.024, 0.994, 192.0, 0.0, 0.0, 0.0, 0.0, 0.0, 0.0, 0.0, 0.0, 0.0, 1.740937743815545E9, 0.0, 2025-03-02 19:49:03.815
143.0, 17901.065099366322, 5200.513327182928, 0.0, 0.0, 0.0, 0.0, 0.0, 13262.072296389617, 0.034, -0.024, 0.994, 192.0, 0.0, 0.0, 0.0, 0.0, 0.0, 0.0, 0.0, 0.0, 0.0, 1.740937743815594E9, 0.0, 2025-03-02 19:49:03.815
144.0, 18062.15412165572, 5141.236500887454, 0.0, 0.0, 0.0, 0.0, 0.0, 11195.474707540836, 0.034, -0.024, 0.994, 192.0, 0.0, 0.0, 0.0, 0.0, 0.0, 0.0, 0.0, 0.0, 0.0, 1.740937743815636E9, 0.0, 2025-03-02 19:49:03.815
145.0, 18252.680391392754, 5416.967620488122, 0.0, 0.0, 0.0, 0.0, 0.0, 10391.124831572155, 0.034, -0.026000000000000002, 0.992, 192.0, 1.0, 16.0, 255.0, 48.0, 31.0, 0.0, 0.0, 0.0, 0.0, 1.740937743815678E9, 0.0, 2025-03-02 19:49:03.815
146.0, 18048.56426102689, 5584.784517858568, 0.0, 0.0, 0.0, 0.0, 0.0, 13320.92443954044, 0.034, -0.026000000000000002, 0.992, 192.0, 0.0, 0.0, 0.0, 0.0, 0.0, 0.0, 0.0, 0.0, 0.0, 1.740937743815722E9, 0.0, 2025-03-02 19:49:03.815
147.0, 17893.59961671825, 5306.505299389994, 0.0, 0.0, 0.0, 0.0, 0.0, 13671.869179233216, 0.034, -0.026000000000000002, 0.992, 192.0, 0.0, 0.0, 0.0, 0.0, 0.0, 0.0, 0.0, 0.0, 0.0, 1.740937743815765E9, 0.0, 2025-03-02 19:49:03.815
148.0, 17905.088413368274, 5207.55412668635, 0.0, 0.0, 0.0, 0.0, 0.0, 13274.902197706962, 0.034, -0.026000000000000002, 0.992, 192.0, 0.0, 0.0, 0.0, 0.0, 0.0, 0.0, 0.0, 0.0, 0.0, 1.740937743815807E9, 0.0, 2025-03-02 19:49:03.815
149.0, 18048.34074358234, 5156.301576650331, 0.0, 0.0, 0.0, 0.0, 0.0, 11205.443585567902, 0.034, -0.026000000000000002, 0.992, 192.0, 0.0, 0.0, 0.0, 0.0, 0.0, 0.0, 0.0, 0.0, 0.0, 1.740937743815852E9, 0.0, 2025-03-02 19:49:03.815
150.0, 18228.831080058942, 5424.164882202731, 0.0, 0.0, 0.0, 0.0, 0.0, 10376.976177331946, 0.034, -0.026000000000000002, 0.992, 192.0, 0.0, 0.0, 0.0, 0.0, 0.0, 0.0, 0.0, 0.0, 0.0, 1.740937743815896E9, 0.0, 2025-03-02 19:49:03.815
151.0, 18042.75280746851, 5599.067282565508, 0.0, 0.0, 0.0, 0.0, 0.0, 13307.289875422703, 0.034, -0.026000000000000002, 0.992, 192.0, 0.0, 0.0, 0.0, 0.0, 0.0, 0.0, 0.0, 0.0, 0.0, 1.740937743874007E9, 0.0, 2025-03-02 19:49:03.874
152.0, 17882.91548286861, 5310.90859304769, 0.0, 0.0, 0.0, 0.0, 0.0, 13660.603900027741, 0.034, -0.026000000000000002, 0.992, 192.0, 0.0, 0.0, 0.0, 0.0, 0.0, 0.0, 0.0, 0.0, 0.0, 1.740937743874081E9, 0.0, 2025-03-02 19:49:03.874
153.0, 17890.06804109431, 5206.972981330512, 0.0, 0.0, 0.0, 0.0, 0.0, 13259.14421786597, 0.034, -0.026000000000000002, 0.992, 192.0, 0.0, 0.0, 0.0, 0.0, 0.0, 0.0, 0.0, 0.0, 0.0, 1.740937743874126E9, 0.0, 2025-03-02 19:49:03.874
154.0, 18055.873281463777, 5169.064422734311, 0.0, 0.0, 0.0, 0.0, 0.0, 11222.98970496532, 0.032, -0.02, 0.992, 192.0, 1.0, 0.0, 255.0, 96.0, 31.0, 0.0, 0.0, 0.0, 0.0, 1.740937743874311E9, 0.0, 2025-03-02 19:49:03.874
155.0, 18255.161435027294, 5436.435989908694, 0.0, 0.0, 0.0, 0.0, 0.0, 10379.52427619985, 0.032, -0.02, 0.992, 192.0, 0.0, 0.0, 0.0, 0.0, 0.0, 0.0, 0.0, 0.0, 0.0, 1.740937743874358E9, 0.0, 2025-03-02 19:49:03.874
156.0, 18061.751790255523, 5622.000172376654, 0.0, 0.0, 0.0, 0.0, 0.0, 13301.076090464127, 0.032, -0.02, 0.992, 192.0, 0.0, 0.0, 0.0, 0.0, 0.0, 0.0, 0.0, 0.0, 0.0, 1.740937743874397E9, 0.0, 2025-03-02 19:49:03.874
157.0, 17886.11178232572, 5334.62379391477, 0.0, 0.0, 0.0, 0.0, 0.0, 13671.310385621833, 0.032, -0.02, 0.992, 192.0, 0.0, 0.0, 0.0, 0.0, 0.0, 0.0, 0.0, 0.0, 0.0, 1.740937743874439E9, 0.0, 2025-03-02 19:49:03.874
158.0, 17898.517000498414, 5220.831062892802, 0.0, 0.0, 0.0, 0.0, 0.0, 13300.740814297298, 0.032, -0.02, 0.992, 192.0, 0.0, 0.0, 0.0, 0.0, 0.0, 0.0, 0.0, 0.0, 0.0, 1.740937743874482E9, 0.0, 2025-03-02 19:49:03.874
159.0, 18060.00835418801, 5167.6786145780825, 0.0, 0.0, 0.0, 0.0, 0.0, 11277.483257947357, 0.032, -0.02, 0.992, 192.0, 0.0, 0.0, 0.0, 0.0, 0.0, 0.0, 0.0, 0.0, 0.0, 1.740937743874523E9, 0.0, 2025-03-02 19:49:03.874
160.0, 18252.211004759196, 5440.146379488276, 0.0, 0.0, 0.0, 0.0, 0.0, 10378.607854677184, 0.032, -0.02, 0.992, 192.0, 0.0, 0.0, 0.0, 0.0, 0.0, 0.0, 0.0, 0.0, 0.0, 1.740937743874566E9, 0.0, 2025-03-02 19:49:03.874
161.0, 18067.160912413707, 5621.150806087352, 0.0, 0.0, 0.0, 0.0, 0.0, 13303.19950618738, 0.032, -0.02, 0.992, 192.0, 0.0, 0.0, 0.0, 0.0, 0.0, 0.0, 0.0, 0.0, 0.0, 1.740937743874607E9, 0.0, 2025-03-02 19:49:03.874
162.0, 17891.49855273945, 5323.425569942662, 0.0, 0.0, 0.0, 0.0, 0.0, 13682.642720060674, 0.032, -0.02, 0.992, 192.0, 0.0, 0.0, 0.0, 0.0, 0.0, 0.0, 0.0, 0.0, 0.0, 1.740937743874651E9, 0.0, 2025-03-02 19:49:03.874
163.0, 17882.714317168513, 5212.180937788598, 0.0, 0.0, 0.0, 0.0, 0.0, 13279.797229742675, 0.032, -0.02, 0.992, 192.0, 0.0, 0.0, 0.0, 0.0, 0.0, 0.0, 0.0, 0.0, 0.0, 1.740937743874693E9, 0.0, 2025-03-02 19:49:03.874
164.0, 18052.00642967301, 5174.205323959032, 0.0, 0.0, 0.0, 0.0, 0.0, 11268.654318887511, 0.03, -0.026000000000000002, 0.994, 192.0, 0.0, 240.0, 255.0, 48.0, 31.0, 16.0, 0.0, 0.0, 0.0, 1.740937743874735E9, 0.0, 2025-03-02 19:49:03.874
165.0, 18256.52489143907, 5452.730411616613, 0.0, 0.0, 0.0, 0.0, 0.0, 10353.350383442687, 0.03, -0.026000000000000002, 0.994, 192.0, 0.0, 0.0, 0.0, 0.0, 0.0, 0.0, 0.0, 0.0, 0.0, 1.74093774387478E9, 0.0, 2025-03-02 19:49:03.874
166.0, 18066.19978740213, 5621.642544465369, 0.0, 0.0, 0.0, 0.0, 0.0, 13281.29479662118, 0.03, -0.026000000000000002, 0.994, 192.0, 0.0, 0.0, 0.0, 0.0, 0.0, 0.0, 0.0, 0.0, 0.0, 1.740937743934294E9, 0.0, 2025-03-02 19:49:03.934
167.0, 17902.8755906672, 5332.142750280232, 0.0, 0.0, 0.0, 0.0, 0.0, 13679.334661881288, 0.03, -0.026000000000000002, 0.994, 192.0, 0.0, 0.0, 0.0, 0.0, 0.0, 0.0, 0.0, 0.0, 0.0, 1.74093774393437E9, 0.0, 2025-03-02 19:49:03.934
168.0, 17908.79880294786, 5233.839778165791, 0.0, 0.0, 0.0, 0.0, 0.0, 13291.82246825963, 0.03, -0.026000000000000002, 0.994, 192.0, 0.0, 0.0, 0.0, 0.0, 0.0, 0.0, 0.0, 0.0, 0.0, 1.740937743934415E9, 0.0, 2025-03-02 19:49:03.934
169.0, 18056.610889030802, 5183.794222330359, 0.0, 0.0, 0.0, 0.0, 0.0, 11297.041034345752, 0.03, -0.026000000000000002, 0.994, 192.0, 0.0, 0.0, 0.0, 0.0, 0.0, 0.0, 0.0, 0.0, 0.0, 1.740937743934457E9, 0.0, 2025-03-02 19:49:03.934
170.0, 18253.730923382154, 5442.336850444895, 0.0, 0.0, 0.0, 0.0, 0.0, 10347.449522906485, 0.03, -0.026000000000000002, 0.994, 192.0, 0.0, 0.0, 0.0, 0.0, 0.0, 0.0, 0.0, 0.0, 0.0, 1.740937743934499E9, 0.0, 2025-03-02 19:49:03.934
171.0, 18067.71970602509, 5631.522015514614, 0.0, 0.0, 0.0, 0.0, 0.0, 13283.4852675778, 0.03, -0.026000000000000002, 0.994, 192.0, 0.0, 0.0, 0.0, 0.0, 0.0, 0.0, 0.0, 0.0, 0.0, 1.740937743934625E9, 0.0, 2025-03-02 19:49:03.934
172.0, 17897.511171997925, 5345.799666142424, 0.0, 0.0, 0.0, 0.0, 0.0, 13705.24033370499, 0.03, -0.026000000000000002, 0.994, 192.0, 0.0, 0.0, 0.0, 0.0, 0.0, 0.0, 0.0, 0.0, 0.0, 1.740937743934669E9, 0.0, 2025-03-02 19:49:03.934
173.0, 17900.238084821474, 5238.84656892378, 0.0, 0.0, 0.0, 0.0, 0.0, 13311.335541169114, 0.03, -0.026000000000000002, 0.994, 192.0, 0.0, 0.0, 0.0, 0.0, 0.0, 0.0, 0.0, 0.0, 0.0, 1.740937743934711E9, 0.0, 2025-03-02 19:49:03.934
174.0, 18063.115246667297, 5195.014798046923, 0.0, 0.0, 0.0, 0.0, 0.0, 11306.719339694899, 0.032, -0.024, 0.992, 192.0, 1.0, 0.0, 255.0, 64.0, 31.0, 0.0, 0.0, 0.0, 0.0, 1.740937743934754E9, 0.0, 2025-03-02 19:49:03.934
175.0, 18268.974813100675, 5457.580740163415, 0.0, 0.0, 0.0, 0.0, 0.0, 10335.737208811905, 0.032, -0.024, 0.992, 192.0, 0.0, 0.0, 0.0, 0.0, 0.0, 0.0, 0.0, 0.0, 0.0, 1.740937743934799E9, 0.0, 2025-03-02 19:49:03.934
176.0, 18072.6147380608, 5636.64056499488, 0.0, 0.0, 0.0, 0.0, 0.0, 13290.280197892214, 0.032, -0.024, 0.992, 192.0, 0.0, 0.0, 0.0, 0.0, 0.0, 0.0, 0.0, 0.0, 0.0, 1.740937743934844E9, 0.0, 2025-03-02 19:49:03.934
177.0, 17891.74442192846, 5339.183549783654, 0.0, 0.0, 0.0, 0.0, 0.0, 13725.558069414863, 0.032, -0.024, 0.992, 192.0, 0.0, 0.0, 0.0, 0.0, 0.0, 0.0, 0.0, 0.0, 0.0, 1.740937743934888E9, 0.0, 2025-03-02 19:49:03.934
178.0, 17899.50047725445, 5230.889347897691, 0.0, 0.0, 0.0, 0.0, 0.0, 13314.10715748157, 0.032, -0.024, 0.992, 192.0, 0.0, 0.0, 0.0, 0.0, 0.0, 0.0, 0.0, 0.0, 0.0, 1.740937743934932E9, 0.0, 2025-03-02 19:49:03.934
179.0, 18040.003542900507, 5173.400661158641, 0.0, 0.0, 0.0, 0.0, 0.0, 11337.542395298768, 0.032, -0.024, 0.992, 192.0, 0.0, 0.0, 0.0, 0.0, 0.0, 0.0, 0.0, 0.0, 0.0, 1.740937743934979E9, 0.0, 2025-03-02 19:49:03.934
180.0, 18237.101225507406, 5438.492350398583, 0.0, 0.0, 0.0, 0.0, 0.0, 10342.688601337506, 0.032, -0.024, 0.992, 192.0, 0.0, 0.0, 0.0, 0.0, 0.0, 0.0, 0.0, 0.0, 0.0, 1.740937743935027E9, 0.0, 2025-03-02 19:49:03.935
181.0, 18043.959801669098, 5630.024448636109, 0.0, 0.0, 0.0, 0.0, 0.0, 13268.934281937396, 0.032, -0.024, 0.992, 192.0, 0.0, 0.0, 0.0, 0.0, 0.0, 0.0, 0.0, 0.0, 0.0, 1.740937743994666E9, 0.0, 2025-03-02 19:49:03.994
182.0, 17876.656994421126, 5338.602404427816, 0.0, 0.0, 0.0, 0.0, 0.0, 13720.372464701231, 0.032, -0.024, 0.992, 192.0, 0.0, 0.0, 0.0, 0.0, 0.0, 0.0, 0.0, 0.0, 0.0, 1.740937743994735E9, 0.0, 2025-03-02 19:49:03.994
183.0, 17879.003927588932, 5220.0934553257775, 0.0, 0.0, 0.0, 0.0, 0.0, 13315.917648782452, 0.032, -0.024, 0.992, 192.0, 0.0, 0.0, 0.0, 0.0, 0.0, 0.0, 0.0, 0.0, 0.0, 1.740937743994782E9, 0.0, 2025-03-02 19:49:03.994
184.0, 18030.43699627364, 5167.633911089171, 0.0, 0.0, 0.0, 0.0, 0.0, 11355.289680396281, 0.03, -0.024, 0.99, 192.0, 0.0, 240.0, 255.0, 64.0, 30.0, 240.0, 0.0, 0.0, 0.0, 1.740937743994828E9, 0.0, 2025-03-02 19:49:03.994
185.0, 18239.93989705323, 5433.887891040789, 0.0, 0.0, 0.0, 0.0, 0.0, 10320.381560371108, 0.03, -0.024, 0.99, 192.0, 0.0, 0.0, 0.0, 0.0, 0.0, 0.0, 0.0, 0.0, 0.0, 1.740937743994876E9, 0.0, 2025-03-02 19:49:03.994
186.0, 18063.47287457858, 5621.195509576262, 0.0, 0.0, 0.0, 0.0, 0.0, 13235.76429316572, 0.03, -0.024, 0.99, 192.0, 0.0, 0.0, 0.0, 0.0, 0.0, 0.0, 0.0, 0.0, 0.0, 1.740937743994921E9, 0.0, 2025-03-02 19:49:03.994
187.0, 17887.9222736266, 5332.992116569533, 0.0, 0.0, 0.0, 0.0, 0.0, 13714.359845442754, 0.03, -0.024, 0.99, 192.0, 0.0, 0.0, 0.0, 0.0, 0.0, 0.0, 0.0, 0.0, 0.0, 1.740937743995024E9, 0.0, 2025-03-02 19:49:03.995
188.0, 17891.67736669509, 5218.752350658459, 0.0, 0.0, 0.0, 0.0, 0.0, 13310.419119646445, 0.03, -0.024, 0.99, 192.0, 0.0, 0.0, 0.0, 0.0, 0.0, 0.0, 0.0, 0.0, 0.0, 1.740937743995069E9, 0.0, 2025-03-02 19:49:03.995
189.0, 18048.631316260256, 5180.664978106615, 0.0, 0.0, 0.0, 0.0, 0.0, 11346.617203547621, 0.03, -0.024, 0.99, 192.0, 0.0, 0.0, 0.0, 0.0, 0.0, 0.0, 0.0, 0.0, 0.0, 1.740937743995114E9, 0.0, 2025-03-02 19:49:03.995
190.0, 18243.292658721526, 5444.773190590524, 0.0, 0.0, 0.0, 0.0, 0.0, 10289.446746044963, 0.03, -0.024, 0.99, 192.0, 0.0, 0.0, 0.0, 0.0, 0.0, 0.0, 0.0, 0.0, 0.0, 1.740937743995159E9, 0.0, 2025-03-02 19:49:03.995
191.0, 18064.031668189964, 5643.994288920676, 0.0, 0.0, 0.0, 0.0, 0.0, 13229.125825062494, 0.03, -0.024, 0.99, 192.0, 0.0, 0.0, 0.0, 0.0, 0.0, 0.0, 0.0, 0.0, 0.0, 1.740937743995216E9, 0.0, 2025-03-02 19:49:03.995
192.0, 17886.49176198146, 5350.538235966949, 0.0, 0.0, 0.0, 0.0, 0.0, 13723.725226369528, 0.03, -0.024, 0.99, 192.0, 0.0, 0.0, 0.0, 0.0, 0.0, 0.0, 0.0, 0.0, 0.0, 1.740937743995262E9, 0.0, 2025-03-02 19:49:03.995
193.0, 17884.457753236027, 5233.996240376979, 0.0, 0.0, 0.0, 0.0, 0.0, 13314.73300632632, 0.034, -0.024, 0.992, 192.0, 1.0, 16.0, 255.0, 64.0, 31.0, 0.0, 0.0, 0.0, 0.0, 1.740937743995307E9, 0.0, 2025-03-02 19:49:03.995
194.0, 18039.33299056685, 5183.9953880304565, 0.0, 0.0, 0.0, 0.0, 0.0, 11379.407212663558, 0.034, -0.024, 0.992, 192.0, 0.0, 0.0, 0.0, 0.0, 0.0, 0.0, 0.0, 0.0, 0.0, 1.740937743995353E9, 0.0, 2025-03-02 19:49:03.995
195.0, 18249.595850657923, 5440.973394033122, 0.0, 0.0, 0.0, 0.0, 0.0, 10284.574065753706, 0.034, -0.024, 0.992, 192.0, 0.0, 0.0, 0.0, 0.0, 0.0, 0.0, 0.0, 0.0, 0.0, 1.740937743995398E9, 0.0, 2025-03-02 19:49:03.995
196.0, 18074.894615995243, 5654.857236725955, 0.0, 0.0, 0.0, 0.0, 0.0, 13228.745845406753, 0.034, -0.024, 0.992, 192.0, 0.0, 0.0, 0.0, 0.0, 0.0, 0.0, 0.0, 0.0, 0.0, 1.740937744054964E9, 0.0, 2025-03-02 19:49:04.054
197.0, 17894.314872540817, 5381.607160759826, 0.0, 0.0, 0.0, 0.0, 0.0, 13723.792281602893, 0.034, -0.024, 0.992, 192.0, 0.0, 0.0, 0.0, 0.0, 0.0, 0.0, 0.0, 0.0, 0.0, 1.74093774405503E9, 0.0, 2025-03-02 19:49:04.055
198.0, 17906.630683735693, 5259.343118589297, 0.0, 0.0, 0.0, 0.0, 0.0, 13318.197526716893, 0.034, -0.024, 0.992, 192.0, 0.0, 0.0, 0.0, 0.0, 0.0, 0.0, 0.0, 0.0, 0.0, 1.740937744055077E9, 0.0, 2025-03-02 19:49:04.055
199.0, 18059.069580920885, 5203.150833028654, 0.0, 0.0, 0.0, 0.0, 0.0, 11393.153535503572, 0.034, -0.024, 0.992, 192.0, 0.0, 0.0, 0.0, 0.0, 0.0, 0.0, 0.0, 0.0, 0.0, 1.740937744055123E9, 0.0, 2025-03-02 19:49:04.055
200.0, 18267.209025288706, 5449.444705181683, 0.0, 0.0, 0.0, 0.0, 0.0, 10278.60614998414, 0.034, -0.024, 0.992, 192.0, 0.0, 0.0, 0.0, 0.0, 0.0, 0.0, 0.0, 0.0, 0.0, 1.740937744055169E9, 0.0, 2025-03-02 19:49:04.055
201.0, 18101.739061086068, 5648.2411203671845, 0.0, 0.0, 0.0, 0.0, 0.0, 13215.312446989114, 0.034, -0.024, 0.992, 192.0, 0.0, 0.0, 0.0, 0.0, 0.0, 0.0, 0.0, 0.0, 0.0, 1.740937744055228E9, 0.0, 2025-03-02 19:49:04.055
202.0, 17913.31385532783, 5362.2058465726195, 0.0, 0.0, 0.0, 0.0, 0.0, 13729.491976438998, 0.034, -0.024, 0.992, 192.0, 0.0, 0.0, 0.0, 0.0, 0.0, 0.0, 0.0, 0.0, 0.0, 1.740937744055279E9, 0.0, 2025-03-02 19:49:04.055
203.0, 17894.91836964111, 5249.75422021797, 0.0, 0.0, 0.0, 0.0, 0.0, 13317.415215660956, 0.032, -0.028, 0.992, 192.0, 1.0, 0.0, 255.0, 32.0, 31.0, 0.0, 0.0, 0.0, 0.0, 1.740937744055325E9, 0.0, 2025-03-02 19:49:04.055
204.0, 18045.52442378097, 5204.849565607258, 0.0, 0.0, 0.0, 0.0, 0.0, 11394.047605281783, 0.032, -0.028, 0.992, 192.0, 0.0, 0.0, 0.0, 0.0, 0.0, 0.0, 0.0, 0.0, 0.0, 1.740937744055421E9, 0.0, 2025-03-02 19:49:04.055
205.0, 18256.636650161345, 5450.741106360091, 0.0, 0.0, 0.0, 0.0, 0.0, 10256.857902629126, 0.032, -0.028, 0.992, 192.0, 0.0, 0.0, 0.0, 0.0, 0.0, 0.0, 0.0, 0.0, 0.0, 1.740937744055462E9, 0.0, 2025-03-02 19:49:04.055
206.0, 18079.63318581977, 5648.576396534014, 0.0, 0.0, 0.0, 0.0, 0.0, 13198.168658991894, 0.032, -0.028, 0.992, 192.0, 0.0, 0.0, 0.0, 0.0, 0.0, 0.0, 0.0, 0.0, 0.0, 1.740937744055497E9, 0.0, 2025-03-02 19:49:04.055
207.0, 17889.86687539421, 5352.706355179114, 0.0, 0.0, 0.0, 0.0, 0.0, 13737.180976531623, 0.032, -0.028, 0.992, 192.0, 0.0, 0.0, 0.0, 0.0, 0.0, 0.0, 0.0, 0.0, 0.0, 1.740937744055542E9, 0.0, 2025-03-02 19:49:04.055
208.0, 17882.73666891297, 5238.220720079032, 0.0, 0.0, 0.0, 0.0, 0.0, 13318.689265094908, 0.032, -0.028, 0.992, 192.0, 0.0, 0.0, 0.0, 0.0, 0.0, 0.0, 0.0, 0.0, 0.0, 1.740937744055568E9, 0.0, 2025-03-02 19:49:04.055
209.0, 18037.455444032603, 5185.604713631238, 0.0, 0.0, 0.0, 0.0, 0.0, 11409.559715933767, 0.032, -0.028, 0.992, 192.0, 0.0, 0.0, 0.0, 0.0, 0.0, 0.0, 0.0, 0.0, 0.0, 1.740937744055593E9, 0.0, 2025-03-02 19:49:04.055
210.0, 18251.741618125634, 5439.386420176795, 0.0, 0.0, 0.0, 0.0, 0.0, 10226.884213314559, 0.032, -0.028, 0.992, 192.0, 0.0, 0.0, 0.0, 0.0, 0.0, 0.0, 0.0, 0.0, 0.0, 1.740937744055618E9, 0.0, 2025-03-02 19:49:04.055
211.0, 18083.209464932617, 5652.622062280424, 0.0, 0.0, 0.0, 0.0, 0.0, 13186.702214086321, 0.032, -0.028, 0.992, 192.0, 0.0, 0.0, 0.0, 0.0, 0.0, 0.0, 0.0, 0.0, 0.0, 1.74093774411528E9, 0.0, 2025-03-02 19:49:04.115
212.0, 17902.003872633442, 5360.350651782829, 0.0, 0.0, 0.0, 0.0, 0.0, 13760.538549487419, 0.032, -0.028, 0.992, 192.0, 0.0, 0.0, 0.0, 0.0, 0.0, 0.0, 0.0, 0.0, 0.0, 1.740937744115334E9, 0.0, 2025-03-02 19:49:04.115
213.0, 17880.970881101, 5238.9359759016015, 0.0, 0.0, 0.0, 0.0, 0.0, 13331.362704201068, 0.026000000000000002, -0.022, 0.992, 192.0, 0.0, 208.0, 255.0, 80.0, 31.0, 0.0, 0.0, 0.0, 0.0, 1.740937744115362E9, 0.0, 2025-03-02 19:49:04.115
214.0, 18013.963760610077, 5183.838925819269, 0.0, 0.0, 0.0, 0.0, 0.0, 11425.11653007466, 0.026000000000000002, -0.022, 0.992, 192.0, 0.0, 0.0, 0.0, 0.0, 0.0, 0.0, 0.0, 0.0, 0.0, 1.740937744115389E9, 0.0, 2025-03-02 19:49:04.115
215.0, 18238.911716808285, 5426.757684559547, 0.0, 0.0, 0.0, 0.0, 0.0, 10209.896887528526, 0.026000000000000002, -0.022, 0.992, 192.0, 0.0, 0.0, 0.0, 0.0, 0.0, 0.0, 0.0, 0.0, 0.0, 1.740937744115415E9, 0.0, 2025-03-02 19:49:04.115
216.0, 18082.270691665493, 5645.625966265913, 0.0, 0.0, 0.0, 0.0, 0.0, 13177.649757581921, 0.026000000000000002, -0.022, 0.992, 192.0, 0.0, 0.0, 0.0, 0.0, 0.0, 0.0, 0.0, 0.0, 0.0, 1.74093774411544E9, 0.0, 2025-03-02 19:49:04.115
217.0, 17881.172046801097, 5353.309852279407, 0.0, 0.0, 0.0, 0.0, 0.0, 13759.488017498019, 0.026000000000000002, -0.022, 0.992, 192.0, 0.0, 0.0, 0.0, 0.0, 0.0, 0.0, 0.0, 0.0, 0.0, 1.740937744115464E9, 0.0, 2025-03-02 19:49:04.115
218.0, 17868.833883861767, 5228.877690896713, 0.0, 0.0, 0.0, 0.0, 0.0, 13333.128492013037, 0.026000000000000002, -0.022, 0.992, 192.0, 0.0, 0.0, 0.0, 0.0, 0.0, 0.0, 0.0, 0.0, 0.0, 1.740937744115489E9, 0.0, 2025-03-02 19:49:04.115
219.0, 18020.356359524296, 5186.476431664995, 0.0, 0.0, 0.0, 0.0, 0.0, 11463.449771815513, 0.026000000000000002, -0.022, 0.992, 192.0, 0.0, 0.0, 0.0, 0.0, 0.0, 0.0, 0.0, 0.0, 0.0, 1.740937744115514E9, 0.0, 2025-03-02 19:49:04.115
220.0, 18237.41414992978, 5427.428236893205, 0.0, 0.0, 0.0, 0.0, 0.0, 10206.49942237132, 0.026000000000000002, -0.022, 0.992, 192.0, 0.0, 0.0, 0.0, 0.0, 0.0, 0.0, 0.0, 0.0, 0.0, 1.740937744115539E9, 0.0, 2025-03-02 19:49:04.115
221.0, 18074.29111889495, 5646.3635738329385, 0.0, 0.0, 0.0, 0.0, 0.0, 13171.123048200972, 0.026000000000000002, -0.022, 0.992, 192.0, 0.0, 0.0, 0.0, 0.0, 0.0, 0.0, 0.0, 0.0, 0.0, 1.740937744115611E9, 0.0, 2025-03-02 19:49:04.115
222.0, 17883.898959624643, 5358.763677926502, 0.0, 0.0, 0.0, 0.0, 0.0, 13780.744526475017, 0.026000000000000002, -0.022, 0.992, 192.0, 0.0, 0.0, 0.0, 0.0, 0.0, 0.0, 0.0, 0.0, 0.0, 1.740937744115637E9, 0.0, 2025-03-02 19:49:04.115
223.0, 17876.791104887856, 5229.324725785819, 0.0, 0.0, 0.0, 0.0, 0.0, 13342.829149106641, 0.028, -0.022, 0.992, 192.0, 0.0, 224.0, 255.0, 80.0, 31.0, 0.0, 0.0, 0.0, 0.0, 1.740937744115662E9, 0.0, 2025-03-02 19:49:04.115
224.0, 18021.205725813597, 5177.468678649507, 0.0, 0.0, 0.0, 0.0, 0.0, 11478.134867922648, 0.028, -0.022, 0.992, 192.0, 0.0, 0.0, 0.0, 0.0, 0.0, 0.0, 0.0, 0.0, 0.0, 1.740937744115689E9, 0.0, 2025-03-02 19:49:04.115
225.0, 18238.196460985717, 5416.900565254756, 0.0, 0.0, 0.0, 0.0, 0.0, 10206.87940202706, 0.028, -0.022, 0.992, 192.0, 0.0, 0.0, 0.0, 0.0, 0.0, 0.0, 0.0, 0.0, 0.0, 1.740937744115714E9, 0.0, 2025-03-02 19:49:04.115
226.0, 18078.13561894126, 5644.597786020969, 0.0, 0.0, 0.0, 0.0, 0.0, 13174.878141269463, 0.028, -0.022, 0.992, 192.0, 0.0, 0.0, 0.0, 0.0, 0.0, 0.0, 0.0, 0.0, 0.0, 1.740937744174152E9, 0.0, 2025-03-02 19:49:04.174
227.0, 17897.287654553373, 5366.653843719226, 0.0, 0.0, 0.0, 0.0, 0.0, 13800.190544151134, 0.028, -0.022, 0.992, 192.0, 0.0, 0.0, 0.0, 0.0, 0.0, 0.0, 0.0, 0.0, 0.0, 1.740937744174233E9, 0.0, 2025-03-02 19:49:04.174
228.0, 17887.76581141541, 5243.920414915135, 0.0, 0.0, 0.0, 0.0, 0.0, 13357.760114402785, 0.028, -0.022, 0.992, 192.0, 0.0, 0.0, 0.0, 0.0, 0.0, 0.0, 0.0, 0.0, 0.0, 1.740937744174263E9, 0.0, 2025-03-02 19:49:04.174
229.0, 18029.341760795327, 5193.673693379605, 0.0, 0.0, 0.0, 0.0, 0.0, 11485.84621975973, 0.028, -0.022, 0.992, 192.0, 0.0, 0.0, 0.0, 0.0, 0.0, 0.0, 0.0, 0.0, 0.0, 1.740937744174289E9, 0.0, 2025-03-02 19:49:04.174
230.0, 18261.33051649696, 5432.077399739909, 0.0, 0.0, 0.0, 0.0, 0.0, 10181.130192414546, 0.028, -0.022, 0.992, 192.0, 0.0, 0.0, 0.0, 0.0, 0.0, 0.0, 0.0, 0.0, 0.0, 1.740937744174315E9, 0.0, 2025-03-02 19:49:04.174
231.0, 18082.583616087868, 5660.780449006611, 0.0, 0.0, 0.0, 0.0, 0.0, 13168.79846677762, 0.028, -0.022, 0.992, 192.0, 0.0, 0.0, 0.0, 0.0, 0.0, 0.0, 0.0, 0.0, 0.0, 1.74093774417434E9, 0.0, 2025-03-02 19:49:04.174
232.0, 17894.0242998629, 5384.468184050105, 0.0, 0.0, 0.0, 0.0, 0.0, 13816.417910625687, 0.028, -0.022, 0.992, 192.0, 0.0, 0.0, 0.0, 0.0, 0.0, 0.0, 0.0, 0.0, 0.0, 1.740937744174364E9, 0.0, 2025-03-02 19:49:04.174
233.0, 17899.34401504326, 5250.871807440735, 0.0, 0.0, 0.0, 0.0, 0.0, 13365.091486584126, 0.028, -0.022, 0.992, 192.0, 0.0, 224.0, 255.0, 80.0, 31.0, 0.0, 0.0, 0.0, 0.0, 1.74093774417439E9, 0.0, 2025-03-02 19:49:04.174
234.0, 18047.37961857076, 5196.422957947607, 0.0, 0.0, 0.0, 0.0, 0.0, 11516.982199785973, 0.028, -0.022, 0.992, 192.0, 0.0, 0.0, 0.0, 0.0, 0.0, 0.0, 0.0, 0.0, 0.0, 1.74093774417442E9, 0.0, 2025-03-02 19:49:04.174
235.0, 18256.23431876115, 5426.221242692619, 0.0, 0.0, 0.0, 0.0, 0.0, 10171.697756254407, 0.028, -0.022, 0.992, 192.0, 0.0, 0.0, 0.0, 0.0, 0.0, 0.0, 0.0, 0.0, 0.0, 1.740937744174445E9, 0.0, 2025-03-02 19:49:04.174
236.0, 18084.30470041093, 5658.679385027813, 0.0, 0.0, 0.0, 0.0, 0.0, 13150.492388068724, 0.028, -0.022, 0.992, 192.0, 0.0, 0.0, 0.0, 0.0, 0.0, 0.0, 0.0, 0.0, 0.0, 1.74093774417447E9, 0.0, 2025-03-02 19:49:04.174
237.0, 17901.60154123325, 5381.6965677376475, 0.0, 0.0, 0.0, 0.0, 0.0, 13820.374169394276, 0.028, -0.022, 0.992, 192.0, 0.0, 0.0, 0.0, 0.0, 0.0, 0.0, 0.0, 0.0, 0.0, 1.740937744174495E9, 0.0, 2025-03-02 19:49:04.174
238.0, 17906.340111057772, 5257.9573104330675, 0.0, 0.0, 0.0, 0.0, 0.0, 13362.163408060482, 0.028, -0.022, 0.992, 192.0, 0.0, 0.0, 0.0, 0.0, 0.0, 0.0, 0.0, 0.0, 0.0, 1.74093774417457E9, 0.0, 2025-03-02 19:49:04.174
239.0, 18039.33299056685, 5198.054635292845, 0.0, 0.0, 0.0, 0.0, 0.0, 11526.816967346307, 0.028, -0.022, 0.992, 192.0, 0.0, 0.0, 0.0, 0.0, 0.0, 0.0, 0.0, 0.0, 0.0, 1.740937744174595E9, 0.0, 2025-03-02 19:49:04.174
240.0, 18258.268327506583, 5430.736295072591, 0.0, 0.0, 0.0, 0.0, 0.0, 10156.655032235985, 0.028, -0.022, 0.992, 192.0, 0.0, 0.0, 0.0, 0.0, 0.0, 0.0, 0.0, 0.0, 0.0, 1.74093774417462E9, 0.0, 2025-03-02 19:49:04.174
241.0, 18095.81584880541, 5671.442231111793, 0.0, 0.0, 0.0, 0.0, 0.0, 13149.106579912494, 0.028, -0.022, 0.992, 192.0, 0.0, 0.0, 0.0, 0.0, 0.0, 0.0, 0.0, 0.0, 0.0, 1.7409377442344E9, 0.0, 2025-03-02 19:49:04.234
242.0, 17912.50919252744, 5402.371931358806, 0.0, 0.0, 0.0, 0.0, 0.0, 13828.711370076106, 0.032, -0.028, 0.992, 192.0, 1.0, 0.0, 255.0, 32.0, 31.0, 0.0, 0.0, 0.0, 0.0, 1.740937744234468E9, 0.0, 2025-03-02 19:49:04.234
243.0, 17905.289579068372, 5270.116659416754, 0.0, 0.0, 0.0, 0.0, 0.0, 13380.022451880272, 0.032, -0.028, 0.992, 192.0, 0.0, 0.0, 0.0, 0.0, 0.0, 0.0, 0.0, 0.0, 0.0, 1.740937744234517E9, 0.0, 2025-03-02 19:49:04.234
244.0, 18035.57789749836, 5204.6036964182495, 0.0, 0.0, 0.0, 0.0, 0.0, 11553.10261882575, 0.032, -0.028, 0.992, 192.0, 0.0, 0.0, 0.0, 0.0, 0.0, 0.0, 0.0, 0.0, 0.0, 1.740937744234563E9, 0.0, 2025-03-02 19:49:04.234
245.0, 18268.930109611763, 5435.117236985831, 0.0, 0.0, 0.0, 0.0, 0.0, 10143.601613474086, 0.032, -0.028, 0.992, 192.0, 0.0, 0.0, 0.0, 0.0, 0.0, 0.0, 0.0, 0.0, 0.0, 1.740937744234608E9, 0.0, 2025-03-02 19:49:04.234
246.0, 18107.95284604464, 5688.608370853469, 0.0, 0.0, 0.0, 0.0, 0.0, 13144.613879276978, 0.032, -0.028, 0.992, 192.0, 0.0, 0.0, 0.0, 0.0, 0.0, 0.0, 0.0, 0.0, 0.0, 1.740937744234654E9, 0.0, 2025-03-02 19:49:04.234
247.0, 17910.698701226556, 5404.2941813819625, 0.0, 0.0, 0.0, 0.0, 0.0, 13845.653992373229, 0.032, -0.028, 0.992, 192.0, 0.0, 0.0, 0.0, 0.0, 0.0, 0.0, 0.0, 0.0, 0.0, 1.740937744234708E9, 0.0, 2025-03-02 19:49:04.234
248.0, 17898.181724331585, 5257.979662177523, 0.0, 0.0, 0.0, 0.0, 0.0, 13375.417992522478, 0.032, -0.028, 0.992, 192.0, 0.0, 0.0, 0.0, 0.0, 0.0, 0.0, 0.0, 0.0, 0.0, 1.740937744234762E9, 0.0, 2025-03-02 19:49:04.234
249.0, 18031.88985966323, 5203.262591750931, 0.0, 0.0, 0.0, 0.0, 0.0, 11553.862578137228, 0.032, -0.028, 0.992, 192.0, 0.0, 0.0, 0.0, 0.0, 0.0, 0.0, 0.0, 0.0, 0.0, 1.740937744234808E9, 0.0, 2025-03-02 19:49:04.234
250.0, 18277.53553122706, 5447.9694900476325, 0.0, 0.0, 0.0, 0.0, 0.0, 10130.034104589713, 0.032, -0.028, 0.992, 192.0, 0.0, 0.0, 0.0, 0.0, 0.0, 0.0, 0.0, 0.0, 0.0, 1.740937744234854E9, 0.0, 2025-03-02 19:49:04.234
251.0, 18125.767186375524, 5706.467414673259, 0.0, 0.0, 0.0, 0.0, 0.0, 13133.013323904674, 0.032, -0.028, 0.992, 192.0, 0.0, 0.0, 0.0, 0.0, 0.0, 0.0, 0.0, 0.0, 0.0, 1.740937744234899E9, 0.0, 2025-03-02 19:49:04.234
252.0, 17927.954247946054, 5429.283431682996, 0.0, 0.0, 0.0, 0.0, 0.0, 13873.280748519988, 0.038, -0.028, 0.99, 192.0, 1.0, 48.0, 255.0, 32.0, 30.0, 240.0, 0.0, 0.0, 0.0, 1.740937744234944E9, 0.0, 2025-03-02 19:49:04.234
253.0, 17914.833773950788, 5281.8513252557905, 0.0, 0.0, 0.0, 0.0, 0.0, 13408.409167338512, 0.038, -0.028, 0.99, 192.0, 0.0, 0.0, 0.0, 0.0, 0.0, 0.0, 0.0, 0.0, 0.0, 1.740937744234978E9, 0.0, 2025-03-02 19:49:04.234
254.0, 18059.85189197682, 5223.803844905358, 0.0, 0.0, 0.0, 0.0, 0.0, 11579.857656938751, 0.038, -0.028, 0.99, 192.0, 0.0, 0.0, 0.0, 0.0, 0.0, 0.0, 0.0, 0.0, 0.0, 1.740937744235003E9, 0.0, 2025-03-02 19:49:04.235
255.0, 18277.04379284904, 5451.568120904937, 0.0, 0.0, 0.0, 0.0, 0.0, 10117.271258505734, 0.038, -0.028, 0.99, 192.0, 0.0, 0.0, 0.0, 0.0, 0.0, 0.0, 0.0, 0.0, 0.0, 1.740937744235079E9, 0.0, 2025-03-02 19:49:04.235
0.0, 18107.215238477616, 5697.347902935494, 0.0, 0.0, 0.0, 0.0, 0.0, 13135.874347194953, 0.038, -0.028, 0.99, 192.0, 0.0, 0.0, 0.0, 0.0, 0.0, 0.0, 0.0, 0.0, 0.0, 1.740937744294722E9, 0.0, 2025-03-02 19:49:04.294
1.0, 17903.277922067395, 5411.111463440831, 0.0, 0.0, 0.0, 0.0, 0.0, 13890.55864698394, 0.038, -0.028, 0.99, 192.0, 0.0, 0.0, 0.0, 0.0, 0.0, 0.0, 0.0, 0.0, 0.0, 1.740937744294771E9, 0.0, 2025-03-02 19:49:04.294
2.0, 17888.81634340481, 5263.053508168878, 0.0, 0.0, 0.0, 0.0, 0.0, 13404.810536481207, 0.038, -0.028, 0.99, 192.0, 0.0, 0.0, 0.0, 0.0, 0.0, 0.0, 0.0, 0.0, 0.0, 1.740937744294799E9, 0.0, 2025-03-02 19:49:04.294
3.0, 18010.342778008315, 5188.689254366071, 0.0, 0.0, 0.0, 0.0, 0.0, 11585.847924452773, 0.038, -0.028, 0.99, 192.0, 0.0, 0.0, 0.0, 0.0, 0.0, 0.0, 0.0, 0.0, 0.0, 1.740937744294825E9, 0.0, 2025-03-02 19:49:04.294
4.0, 18254.26736524908, 5425.461283381139, 0.0, 0.0, 0.0, 0.0, 0.0, 10085.397670912465, 0.038, -0.028, 0.99, 192.0, 0.0, 0.0, 0.0, 0.0, 0.0, 0.0, 0.0, 0.0, 0.0, 1.74093774429485E9, 0.0, 2025-03-02 19:49:04.294
5.0, 18121.654465395746, 5704.545164650102, 0.0, 0.0, 0.0, 0.0, 0.0, 13109.633399204422, 0.038, -0.028, 0.99, 192.0, 0.0, 0.0, 0.0, 0.0, 0.0, 0.0, 0.0, 0.0, 0.0, 1.740937744294876E9, 0.0, 2025-03-02 19:49:04.294
6.0, 17921.159317631642, 5430.803350305957, 0.0, 0.0, 0.0, 0.0, 0.0, 13899.298179065965, 0.032, -0.024, 0.994, 192.0, 1.0, 0.0, 255.0, 64.0, 31.0, 16.0, 0.0, 0.0, 0.0, 1.740937744294901E9, 0.0, 2025-03-02 19:49:04.294
7.0, 17914.990236161975, 5283.259485156475, 0.0, 0.0, 0.0, 0.0, 0.0, 13414.645304041542, 0.032, -0.024, 0.994, 192.0, 0.0, 0.0, 0.0, 0.0, 0.0, 0.0, 0.0, 0.0, 0.0, 1.740937744294928E9, 0.0, 2025-03-02 19:49:04.294
8.0, 18043.602173757812, 5216.070141323822, 0.0, 0.0, 0.0, 0.0, 0.0, 11616.000427722982, 0.032, -0.024, 0.994, 192.0, 0.0, 0.0, 0.0, 0.0, 0.0, 0.0, 0.0, 0.0, 0.0, 1.740937744294953E9, 0.0, 2025-03-02 19:49:04.294
9.0, 18261.84460661943, 5431.540957872982, 0.0, 0.0, 0.0, 0.0, 0.0, 10071.874865517006, 0.032, -0.024, 0.994, 192.0, 0.0, 0.0, 0.0, 0.0, 0.0, 0.0, 0.0, 0.0, 0.0, 1.740937744294979E9, 0.0, 2025-03-02 19:49:04.294
10.0, 18127.510622443035, 5696.878516301932, 0.0, 0.0, 0.0, 0.0, 0.0, 13096.11059380896, 0.032, -0.024, 0.994, 192.0, 0.0, 0.0, 0.0, 0.0, 0.0, 0.0, 0.0, 0.0, 0.0, 1.740937744295004E9, 0.0, 2025-03-02 19:49:04.295
11.0, 17935.956172461054, 5425.9530217591555, 0.0, 0.0, 0.0, 0.0, 0.0, 13935.083321938911, 0.032, -0.024, 0.994, 192.0, 0.0, 0.0, 0.0, 0.0, 0.0, 0.0, 0.0, 0.0, 0.0, 1.74093774429503E9, 0.0, 2025-03-02 19:49:04.295
12.0, 17917.06894839632, 5269.691976272104, 0.0, 0.0, 0.0, 0.0, 0.0, 13451.123350992602, 0.032, -0.024, 0.994, 192.0, 0.0, 0.0, 0.0, 0.0, 0.0, 0.0, 0.0, 0.0, 0.0, 1.740937744295055E9, 0.0, 2025-03-02 19:49:04.295
13.0, 18033.365074797282, 5204.335475484786, 0.0, 0.0, 0.0, 0.0, 0.0, 11655.16068400868, 0.032, -0.024, 0.994, 192.0, 0.0, 0.0, 0.0, 0.0, 0.0, 0.0, 0.0, 0.0, 0.0, 1.74093774429508E9, 0.0, 2025-03-02 19:49:04.295
14.0, 18275.836798648455, 5432.435027651194, 0.0, 0.0, 0.0, 0.0, 0.0, 10101.021540286725, 0.032, -0.024, 0.994, 192.0, 0.0, 0.0, 0.0, 0.0, 0.0, 0.0, 0.0, 0.0, 0.0, 1.740937744295104E9, 0.0, 2025-03-02 19:49:04.295
15.0, 18126.549497431457, 5707.2944292181055, 0.0, 0.0, 0.0, 0.0, 0.0, 13114.103748095484, 0.032, -0.024, 0.994, 192.0, 0.0, 0.0, 0.0, 0.0, 0.0, 0.0, 0.0, 0.0, 0.0, 1.740937744354934E9, 0.0, 2025-03-02 19:49:04.354
16.0, 17919.68410249759, 5433.55261487396, 0.0, 0.0, 0.0, 0.0, 0.0, 13934.703342283172, 0.034, -0.02, 1.0, 192.0, 1.0, 16.0, 255.0, 96.0, 31.0, 64.0, 0.0, 0.0, 0.0, 1.740937744355057E9, 0.0, 2025-03-02 19:49:04.355
17.0, 17910.855163437744, 5284.265313656964, 0.0, 0.0, 0.0, 0.0, 0.0, 13460.421676686012, 0.034, -0.02, 1.0, 192.0, 0.0, 0.0, 0.0, 0.0, 0.0, 0.0, 0.0, 0.0, 0.0, 1.740937744355107E9, 0.0, 2025-03-02 19:49:04.355
18.0, 18041.94814466812, 5224.452045494562, 0.0, 0.0, 0.0, 0.0, 0.0, 11682.742736666529, 0.034, -0.02, 1.0, 192.0, 0.0, 0.0, 0.0, 0.0, 0.0, 0.0, 0.0, 0.0, 0.0, 1.740937744355147E9, 0.0, 2025-03-02 19:49:04.355
19.0, 18279.90481613932, 5443.499141156572, 0.0, 0.0, 0.0, 0.0, 0.0, 10074.601778340553, 0.034, -0.02, 1.0, 192.0, 0.0, 0.0, 0.0, 0.0, 0.0, 0.0, 0.0, 0.0, 0.0, 1.740937744355192E9, 0.0, 2025-03-02 19:49:04.355
20.0, 18138.462977226136, 5717.889156089921, 0.0, 0.0, 0.0, 0.0, 0.0, 13100.938570611308, 0.034, -0.02, 1.0, 192.0, 0.0, 0.0, 0.0, 0.0, 0.0, 0.0, 0.0, 0.0, 0.0, 1.740937744355251E9, 0.0, 2025-03-02 19:49:04.355
21.0, 17935.55384106086, 5439.699344599169, 0.0, 0.0, 0.0, 0.0, 0.0, 13952.540034358506, 0.034, -0.02, 1.0, 192.0, 0.0, 0.0, 0.0, 0.0, 0.0, 0.0, 0.0, 0.0, 0.0, 1.740937744355296E9, 0.0, 2025-03-02 19:49:04.355
22.0, 17919.0806053973, 5290.277932915442, 0.0, 0.0, 0.0, 0.0, 0.0, 13450.341039936668, 0.034, -0.02, 1.0, 192.0, 0.0, 0.0, 0.0, 0.0, 0.0, 0.0, 0.0, 0.0, 0.0, 1.740937744355341E9, 0.0, 2025-03-02 19:49:04.355
23.0, 18029.60998172879, 5218.551184958361, 0.0, 0.0, 0.0, 0.0, 0.0, 11673.824390628863, 0.034, -0.02, 1.0, 192.0, 0.0, 0.0, 0.0, 0.0, 0.0, 0.0, 0.0, 0.0, 0.0, 1.740937744355386E9, 0.0, 2025-03-02 19:49:04.355
24.0, 18271.18763580175, 5435.072533496921, 0.0, 0.0, 0.0, 0.0, 0.0, 10045.23158612628, 0.034, -0.02, 1.0, 192.0, 0.0, 0.0, 0.0, 0.0, 0.0, 0.0, 0.0, 0.0, 0.0, 1.740937744355431E9, 0.0, 2025-03-02 19:49:04.355
25.0, 18140.07230282692, 5717.7997491121, 0.0, 0.0, 0.0, 0.0, 0.0, 13081.157276768361, 0.034, -0.02, 1.0, 192.0, 0.0, 0.0, 0.0, 0.0, 0.0, 0.0, 0.0, 0.0, 0.0, 1.740937744355476E9, 0.0, 2025-03-02 19:49:04.355
26.0, 17936.246745138975, 5441.733353344603, 0.0, 0.0, 0.0, 0.0, 0.0, 13967.00161302109, 0.032, -0.02, 0.998, 192.0, 1.0, 0.0, 255.0, 96.0, 31.0, 48.0, 0.0, 0.0, 0.0, 1.740937744355522E9, 0.0, 2025-03-02 19:49:04.355
27.0, 17919.326474586305, 5276.866886242257, 0.0, 0.0, 0.0, 0.0, 0.0, 13448.284679446779, 0.032, -0.02, 0.998, 192.0, 0.0, 0.0, 0.0, 0.0, 0.0, 0.0, 0.0, 0.0, 0.0, 1.740937744355568E9, 0.0, 2025-03-02 19:49:04.355
28.0, 18037.0084091435, 5207.934106342091, 0.0, 0.0, 0.0, 0.0, 0.0, 11677.333614508345, 0.032, -0.02, 0.998, 192.0, 0.0, 0.0, 0.0, 0.0, 0.0, 0.0, 0.0, 0.0, 0.0, 1.740937744355621E9, 0.0, 2025-03-02 19:49:04.355
29.0, 18272.685202680255, 5423.114350213332, 0.0, 0.0, 0.0, 0.0, 0.0, 10004.394949006433, 0.032, -0.02, 0.998, 192.0, 0.0, 0.0, 0.0, 0.0, 0.0, 0.0, 0.0, 0.0, 0.0, 1.740937744355666E9, 0.0, 2025-03-02 19:49:04.355
30.0, 18141.860442383342, 5714.245821743706, 0.0, 0.0, 0.0, 0.0, 0.0, 13048.00963974114, 0.032, -0.02, 0.998, 192.0, 0.0, 0.0, 0.0, 0.0, 0.0, 0.0, 0.0, 0.0, 0.0, 1.740937744415214E9, 0.0, 2025-03-02 19:49:04.415
31.0, 17936.090282927787, 5437.285356197996, 0.0, 0.0, 0.0, 0.0, 0.0, 13956.406886149274, 0.032, -0.02, 0.998, 192.0, 0.0, 0.0, 0.0, 0.0, 0.0, 0.0, 0.0, 0.0, 0.0, 1.740937744415282E9, 0.0, 2025-03-02 19:49:04.415
32.0, 17927.708378757045, 5268.864961727258, 0.0, 0.0, 0.0, 0.0, 0.0, 13438.4722636309, 0.032, -0.02, 0.998, 192.0, 0.0, 0.0, 0.0, 0.0, 0.0, 0.0, 0.0, 0.0, 0.0, 1.740937744415327E9, 0.0, 2025-03-02 19:49:04.415
33.0, 18038.438920788638, 5199.149870771154, 0.0, 0.0, 0.0, 0.0, 0.0, 11699.059510118905, 0.032, -0.02, 0.998, 192.0, 0.0, 0.0, 0.0, 0.0, 0.0, 0.0, 0.0, 0.0, 0.0, 1.740937744415422E9, 0.0, 2025-03-02 19:49:04.415
34.0, 18279.457781250214, 5419.426312378206, 0.0, 0.0, 0.0, 0.0, 0.0, 10022.991600393249, 0.032, -0.02, 0.998, 192.0, 0.0, 0.0, 0.0, 0.0, 0.0, 0.0, 0.0, 0.0, 0.0, 1.740937744415465E9, 0.0, 2025-03-02 19:49:04.415
35.0, 18152.36576227734, 5705.08160651703, 0.0, 0.0, 0.0, 0.0, 0.0, 13030.396465110358, 0.036000000000000004, -0.022, 0.994, 192.0, 1.0, 32.0, 255.0, 80.0, 31.0, 16.0, 0.0, 0.0, 0.0, 1.74093774441551E9, 0.0, 2025-03-02 19:49:04.415
36.0, 17941.611163808248, 5436.145417230776, 0.0, 0.0, 0.0, 0.0, 0.0, 13962.777133319038, 0.036000000000000004, -0.022, 0.994, 192.0, 0.0, 0.0, 0.0, 0.0, 0.0, 0.0, 0.0, 0.0, 0.0, 1.740937744415556E9, 0.0, 2025-03-02 19:49:04.415
37.0, 17919.482936797493, 5274.430546096629, 0.0, 0.0, 0.0, 0.0, 0.0, 13450.251632958847, 0.036000000000000004, -0.022, 0.994, 192.0, 0.0, 0.0, 0.0, 0.0, 0.0, 0.0, 0.0, 0.0, 0.0, 1.740937744415597E9, 0.0, 2025-03-02 19:49:04.415
38.0, 18035.019103886974, 5198.121690526211, 0.0, 0.0, 0.0, 0.0, 0.0, 11720.919516196194, 0.036000000000000004, -0.022, 0.994, 192.0, 0.0, 0.0, 0.0, 0.0, 0.0, 0.0, 0.0, 0.0, 0.0, 1.740937744415639E9, 0.0, 2025-03-02 19:49:04.415
39.0, 18289.04667962154, 5416.475882110105, 0.0, 0.0, 0.0, 0.0, 0.0, 10013.045074110636, 0.036000000000000004, -0.022, 0.994, 192.0, 0.0, 0.0, 0.0, 0.0, 0.0, 0.0, 0.0, 0.0, 0.0, 1.740937744415688E9, 0.0, 2025-03-02 19:49:04.415
40.0, 18164.45805602766, 5725.309935249083, 0.0, 0.0, 0.0, 0.0, 0.0, 13021.656933028333, 0.036000000000000004, -0.022, 0.994, 192.0, 0.0, 0.0, 0.0, 0.0, 0.0, 0.0, 0.0, 0.0, 0.0, 1.740937744415734E9, 0.0, 2025-03-02 19:49:04.415
41.0, 17950.797730779377, 5445.7343156021025, 0.0, 0.0, 0.0, 0.0, 0.0, 13969.1473804888, 0.036000000000000004, -0.022, 0.994, 192.0, 0.0, 0.0, 0.0, 0.0, 0.0, 0.0, 0.0, 0.0, 0.0, 1.740937744415776E9, 0.0, 2025-03-02 19:49:04.415
42.0, 17922.74629148797, 5270.451935583585, 0.0, 0.0, 0.0, 0.0, 0.0, 13446.98827826837, 0.036000000000000004, -0.022, 0.994, 192.0, 0.0, 0.0, 0.0, 0.0, 0.0, 0.0, 0.0, 0.0, 0.0, 1.74093774441582E9, 0.0, 2025-03-02 19:49:04.415
43.0, 18044.63035400276, 5206.704760397049, 0.0, 0.0, 0.0, 0.0, 0.0, 11734.732894269573, 0.036000000000000004, -0.022, 0.994, 192.0, 0.0, 0.0, 0.0, 0.0, 0.0, 0.0, 0.0, 0.0, 0.0, 1.740937744415865E9, 0.0, 2025-03-02 19:49:04.415
44.0, 18297.89797042584, 5412.11729194132, 0.0, 0.0, 0.0, 0.0, 0.0, 9989.463983710288, 0.036000000000000004, -0.022, 0.994, 192.0, 0.0, 0.0, 0.0, 0.0, 0.0, 0.0, 0.0, 0.0, 0.0, 1.740937744415908E9, 0.0, 2025-03-02 19:49:04.415
45.0, 18166.961451406652, 5711.854185086988, 0.0, 0.0, 0.0, 0.0, 0.0, 12993.940769903753, 0.032, -0.028, 0.996, 192.0, 1.0, 0.0, 255.0, 32.0, 31.0, 32.0, 0.0, 0.0, 0.0, 1.740937744474133E9, 0.0, 2025-03-02 19:49:04.474
46.0, 17950.08247495681, 5445.287280712996, 0.0, 0.0, 0.0, 0.0, 0.0, 13980.05503178299, 0.032, -0.028, 0.996, 192.0, 0.0, 0.0, 0.0, 0.0, 0.0, 0.0, 0.0, 0.0, 0.0, 1.740937744474225E9, 0.0, 2025-03-02 19:49:04.474
47.0, 17935.844413738778, 5269.893141972201, 0.0, 0.0, 0.0, 0.0, 0.0, 13450.51985389231, 0.032, -0.028, 0.996, 192.0, 0.0, 0.0, 0.0, 0.0, 0.0, 0.0, 0.0, 0.0, 0.0, 1.740937744474276E9, 0.0, 2025-03-02 19:49:04.474
48.0, 18044.160967369196, 5205.74363538547, 0.0, 0.0, 0.0, 0.0, 0.0, 11759.811551548428, 0.032, -0.028, 0.996, 192.0, 0.0, 0.0, 0.0, 0.0, 0.0, 0.0, 0.0, 0.0, 0.0, 1.740937744474319E9, 0.0, 2025-03-02 19:49:04.474
49.0, 18275.322708525982, 5408.250440150552, 0.0, 0.0, 0.0, 0.0, 0.0, 10009.446443253331, 0.032, -0.028, 0.996, 192.0, 0.0, 0.0, 0.0, 0.0, 0.0, 0.0, 0.0, 0.0, 0.0, 1.740937744474456E9, 0.0, 2025-03-02 19:49:04.474
50.0, 18157.327849546415, 5708.680237374335, 0.0, 0.0, 0.0, 0.0, 0.0, 12983.301339543026, 0.032, -0.028, 0.996, 192.0, 0.0, 0.0, 0.0, 0.0, 0.0, 0.0, 0.0, 0.0, 0.0, 1.740937744474552E9, 0.0, 2025-03-02 19:49:04.474
51.0, 17952.138835446698, 5446.427219680217, 0.0, 0.0, 0.0, 0.0, 0.0, 13971.382554934331, 0.032, -0.028, 0.996, 192.0, 0.0, 0.0, 0.0, 0.0, 0.0, 0.0, 0.0, 0.0, 0.0, 1.7409377444746E9, 0.0, 2025-03-02 19:49:04.474
52.0, 17933.564535804337, 5278.409156609673, 0.0, 0.0, 0.0, 0.0, 0.0, 13443.94844102245, 0.032, -0.028, 0.996, 192.0, 0.0, 0.0, 0.0, 0.0, 0.0, 0.0, 0.0, 0.0, 0.0, 1.740937744474643E9, 0.0, 2025-03-02 19:49:04.474
53.0, 18044.272726091473, 5201.6085626612385, 0.0, 0.0, 0.0, 0.0, 0.0, 11792.132174030803, 0.032, -0.028, 0.996, 192.0, 0.0, 0.0, 0.0, 0.0, 0.0, 0.0, 0.0, 0.0, 0.0, 1.740937744474685E9, 0.0, 2025-03-02 19:49:04.474
54.0, 18285.00101387513, 5397.409844089728, 0.0, 0.0, 0.0, 0.0, 0.0, 9992.660283167397, 0.032, -0.028, 0.996, 192.0, 0.0, 0.0, 0.0, 0.0, 0.0, 0.0, 0.0, 0.0, 0.0, 1.740937744474729E9, 0.0, 2025-03-02 19:49:04.474
55.0, 18164.905090916764, 5701.102996003985, 0.0, 0.0, 0.0, 0.0, 0.0, 12955.920452585275, 0.032, -0.026000000000000002, 0.986, 192.0, 1.0, 0.0, 255.0, 48.0, 30.0, 208.0, 0.0, 0.0, 0.0, 1.740937744474772E9, 0.0, 2025-03-02 19:49:04.474
56.0, 17948.160224933654, 5432.010344506543, 0.0, 0.0, 0.0, 0.0, 0.0, 13981.932578317235, 0.032, -0.026000000000000002, 0.986, 192.0, 0.0, 0.0, 0.0, 0.0, 0.0, 0.0, 0.0, 0.0, 0.0, 1.740937744474816E9, 0.0, 2025-03-02 19:49:04.474
57.0, 17917.694797241067, 5256.70561274357, 0.0, 0.0, 0.0, 0.0, 0.0, 13448.217624213414, 0.032, -0.026000000000000002, 0.986, 192.0, 0.0, 0.0, 0.0, 0.0, 0.0, 0.0, 0.0, 0.0, 0.0, 1.740937744474858E9, 0.0, 2025-03-02 19:49:04.474
58.0, 18026.7042549496, 5185.962341542523, 0.0, 0.0, 0.0, 0.0, 0.0, 11796.222543266123, 0.032, -0.026000000000000002, 0.986, 192.0, 0.0, 0.0, 0.0, 0.0, 0.0, 0.0, 0.0, 0.0, 0.0, 1.7409377444749E9, 0.0, 2025-03-02 19:49:04.474
59.0, 18283.05641210752, 5388.960884685622, 0.0, 0.0, 0.0, 0.0, 0.0, 9970.353242201, 0.032, -0.026000000000000002, 0.986, 192.0, 0.0, 0.0, 0.0, 0.0, 0.0, 0.0, 0.0, 0.0, 0.0, 1.740937744474943E9, 0.0, 2025-03-02 19:49:04.474
60.0, 18172.772904965033, 5702.913487304865, 0.0, 0.0, 0.0, 0.0, 0.0, 12921.118786468362, 0.032, -0.026000000000000002, 0.986, 192.0, 0.0, 0.0, 0.0, 0.0, 0.0, 0.0, 0.0, 0.0, 0.0, 1.740937744534509E9, 0.0, 2025-03-02 19:49:04.534
61.0, 17962.375934407228, 5442.158036489253, 0.0, 0.0, 0.0, 0.0, 0.0, 13982.603130650894, 0.032, -0.026000000000000002, 0.986, 192.0, 0.0, 0.0, 0.0, 0.0, 0.0, 0.0, 0.0, 0.0, 0.0, 1.74093774453456E9, 0.0, 2025-03-02 19:49:04.534
62.0, 17931.59758229227, 5268.015595437956, 0.0, 0.0, 0.0, 0.0, 0.0, 13448.195272468958, 0.032, -0.026000000000000002, 0.986, 192.0, 0.0, 0.0, 0.0, 0.0, 0.0, 0.0, 0.0, 0.0, 0.0, 1.740937744534588E9, 0.0, 2025-03-02 19:49:04.534
63.0, 18032.51570850798, 5193.696045124059, 0.0, 0.0, 0.0, 0.0, 0.0, 11812.248744040578, 0.032, -0.026000000000000002, 0.986, 192.0, 0.0, 0.0, 0.0, 0.0, 0.0, 0.0, 0.0, 0.0, 0.0, 1.740937744534614E9, 0.0, 2025-03-02 19:49:04.534
64.0, 18286.00684237562, 5387.776242229491, 0.0, 0.0, 0.0, 0.0, 0.0, 9969.213303233779, 0.032, -0.026000000000000002, 0.986, 192.0, 0.0, 0.0, 0.0, 0.0, 0.0, 0.0, 0.0, 0.0, 0.0, 1.740937744534639E9, 0.0, 2025-03-02 19:49:04.534
65.0, 18178.472599801134, 5694.17395522284, 0.0, 0.0, 0.0, 0.0, 0.0, 12915.284981165527, 0.034, -0.024, 0.988, 192.0, 1.0, 16.0, 255.0, 64.0, 30.0, 224.0, 0.0, 0.0, 0.0, 1.740937744534665E9, 0.0, 2025-03-02 19:49:04.534
66.0, 17958.911414016657, 5425.148358958764, 0.0, 0.0, 0.0, 0.0, 0.0, 13996.796488380014, 0.034, -0.024, 0.988, 192.0, 0.0, 0.0, 0.0, 0.0, 0.0, 0.0, 0.0, 0.0, 0.0, 1.740937744534692E9, 0.0, 2025-03-02 19:49:04.534
67.0, 17931.64228578118, 5249.888330684702, 0.0, 0.0, 0.0, 0.0, 0.0, 13453.358525438134, 0.034, -0.024, 0.988, 192.0, 0.0, 0.0, 0.0, 0.0, 0.0, 0.0, 0.0, 0.0, 0.0, 1.740937744534777E9, 0.0, 2025-03-02 19:49:04.534
68.0, 18031.33106605185, 5191.103242767244, 0.0, 0.0, 0.0, 0.0, 0.0, 11828.051427370481, 0.034, -0.024, 0.988, 192.0, 0.0, 0.0, 0.0, 0.0, 0.0, 0.0, 0.0, 0.0, 0.0, 1.740937744534804E9, 0.0, 2025-03-02 19:49:04.534
69.0, 18278.541359727547, 5381.316588081907, 0.0, 0.0, 0.0, 0.0, 0.0, 9966.709907854785, 0.034, -0.024, 0.988, 192.0, 0.0, 0.0, 0.0, 0.0, 0.0, 0.0, 0.0, 0.0, 0.0, 1.740937744534829E9, 0.0, 2025-03-02 19:49:04.534
70.0, 18161.865253670843, 5684.428594640326, 0.0, 0.0, 0.0, 0.0, 0.0, 12895.950722211686, 0.034, -0.024, 0.988, 192.0, 0.0, 0.0, 0.0, 0.0, 0.0, 0.0, 0.0, 0.0, 0.0, 1.740937744534855E9, 0.0, 2025-03-02 19:49:04.534
71.0, 17944.74040803199, 5425.505986870049, 0.0, 0.0, 0.0, 0.0, 0.0, 14004.172564050266, 0.034, -0.024, 0.988, 192.0, 0.0, 0.0, 0.0, 0.0, 0.0, 0.0, 0.0, 0.0, 0.0, 1.740937744534882E9, 0.0, 2025-03-02 19:49:04.534
72.0, 17926.25551536745, 5243.898063170679, 0.0, 0.0, 0.0, 0.0, 0.0, 13473.139819281081, 0.034, -0.024, 0.988, 192.0, 0.0, 0.0, 0.0, 0.0, 0.0, 0.0, 0.0, 0.0, 0.0, 1.74093774453491E9, 0.0, 2025-03-02 19:49:04.534
73.0, 18028.67120846167, 5169.489105878962, 0.0, 0.0, 0.0, 0.0, 0.0, 11863.031907443037, 0.034, -0.024, 0.988, 192.0, 0.0, 0.0, 0.0, 0.0, 0.0, 0.0, 0.0, 0.0, 0.0, 1.740937744534937E9, 0.0, 2025-03-02 19:49:04.534
74.0, 18265.957327599208, 5347.900730121223, 0.0, 0.0, 0.0, 0.0, 0.0, 9948.225015190246, 0.034, -0.024, 0.988, 192.0, 0.0, 0.0, 0.0, 0.0, 0.0, 0.0, 0.0, 0.0, 0.0, 1.740937744534966E9, 0.0, 2025-03-02 19:49:04.534
75.0, 18162.491102515593, 5661.7862775071, 0.0, 0.0, 0.0, 0.0, 0.0, 12854.443532758181, 0.038, -0.026000000000000002, 0.988, 192.0, 1.0, 48.0, 255.0, 48.0, 30.0, 224.0, 0.0, 0.0, 0.0, 1.740937744594728E9, 0.0, 2025-03-02 19:49:04.594
76.0, 17944.11455918724, 5410.060931451432, 0.0, 0.0, 0.0, 0.0, 0.0, 13996.550619191006, 0.038, -0.026000000000000002, 0.988, 192.0, 0.0, 0.0, 0.0, 0.0, 0.0, 0.0, 0.0, 0.0, 0.0, 1.740937744594781E9, 0.0, 2025-03-02 19:49:04.594
77.0, 17915.236105350985, 5227.134254829199, 0.0, 0.0, 0.0, 0.0, 0.0, 13449.268156202812, 0.038, -0.026000000000000002, 0.988, 192.0, 0.0, 0.0, 0.0, 0.0, 0.0, 0.0, 0.0, 0.0, 0.0, 1.740937744594809E9, 0.0, 2025-03-02 19:49:04.594
78.0, 18021.295132791416, 5158.983785984968, 0.0, 0.0, 0.0, 0.0, 0.0, 11862.763686509572, 0.038, -0.026000000000000002, 0.988, 192.0, 0.0, 0.0, 0.0, 0.0, 0.0, 0.0, 0.0, 0.0, 0.0, 1.740937744594844E9, 0.0, 2025-03-02 19:49:04.594
79.0, 18286.051545864528, 5350.560587711405, 0.0, 0.0, 0.0, 0.0, 0.0, 9948.739105312718, 0.038, -0.026000000000000002, 0.988, 192.0, 0.0, 0.0, 0.0, 0.0, 0.0, 0.0, 0.0, 0.0, 0.0, 1.740937744594887E9, 0.0, 2025-03-02 19:49:04.594
80.0, 18188.59794003939, 5669.6093880664575, 0.0, 0.0, 0.0, 0.0, 0.0, 12847.626250699312, 0.038, -0.026000000000000002, 0.988, 192.0, 0.0, 0.0, 0.0, 0.0, 0.0, 0.0, 0.0, 0.0, 0.0, 1.740937744594932E9, 0.0, 2025-03-02 19:49:04.594
81.0, 17969.863768799754, 5421.9297077572, 0.0, 0.0, 0.0, 0.0, 0.0, 13991.655587155294, 0.038, -0.026000000000000002, 0.988, 192.0, 0.0, 0.0, 0.0, 0.0, 0.0, 0.0, 0.0, 0.0, 0.0, 1.740937744594978E9, 0.0, 2025-03-02 19:49:04.594
82.0, 17938.906602729156, 5235.739676444492, 0.0, 0.0, 0.0, 0.0, 0.0, 13458.208853984936, 0.038, -0.026000000000000002, 0.988, 192.0, 0.0, 0.0, 0.0, 0.0, 0.0, 0.0, 0.0, 0.0, 0.0, 1.740937744595024E9, 0.0, 2025-03-02 19:49:04.595
83.0, 18041.925792923666, 5157.843847017747, 0.0, 0.0, 0.0, 0.0, 0.0, 11891.999768257114, 0.038, -0.026000000000000002, 0.988, 192.0, 0.0, 0.0, 0.0, 0.0, 0.0, 0.0, 0.0, 0.0, 0.0, 1.740937744595064E9, 0.0, 2025-03-02 19:49:04.595
84.0, 18285.202179575226, 5336.948375338123, 0.0, 0.0, 0.0, 0.0, 0.0, 9943.486445365721, 0.038, -0.026000000000000002, 0.99, 192.0, 1.0, 48.0, 255.0, 48.0, 30.0, 240.0, 0.0, 0.0, 0.0, 1.740937744595111E9, 0.0, 2025-03-02 19:49:04.595
85.0, 18185.133419648817, 5662.903864729866, 0.0, 0.0, 0.0, 0.0, 0.0, 12839.087884317385, 0.038, -0.026000000000000002, 0.99, 192.0, 0.0, 0.0, 0.0, 0.0, 0.0, 0.0, 0.0, 0.0, 0.0, 1.74093774459524E9, 0.0, 2025-03-02 19:49:04.595
86.0, 17958.21850993854, 5408.339847128374, 0.0, 0.0, 0.0, 0.0, 0.0, 13995.030700568046, 0.038, -0.026000000000000002, 0.99, 192.0, 0.0, 0.0, 0.0, 0.0, 0.0, 0.0, 0.0, 0.0, 0.0, 1.740937744595293E9, 0.0, 2025-03-02 19:49:04.595
87.0, 17933.720998015524, 5239.1147898572435, 0.0, 0.0, 0.0, 0.0, 0.0, 13450.005763769837, 0.038, -0.026000000000000002, 0.99, 192.0, 0.0, 0.0, 0.0, 0.0, 0.0, 0.0, 0.0, 0.0, 0.0, 1.740937744595336E9, 0.0, 2025-03-02 19:49:04.595
88.0, 18043.512766779993, 5160.079021463278, 0.0, 0.0, 0.0, 0.0, 0.0, 11904.002655029613, 0.038, -0.026000000000000002, 0.99, 192.0, 0.0, 0.0, 0.0, 0.0, 0.0, 0.0, 0.0, 0.0, 0.0, 1.740937744595378E9, 0.0, 2025-03-02 19:49:04.595
89.0, 18289.560769744014, 5324.476101932061, 0.0, 0.0, 0.0, 0.0, 0.0, 9931.304744637579, 0.038, -0.026000000000000002, 0.99, 192.0, 0.0, 0.0, 0.0, 0.0, 0.0, 0.0, 0.0, 0.0, 0.0, 1.740937744595415E9, 0.0, 2025-03-02 19:49:04.595
90.0, 18190.11785866235, 5645.469504054726, 0.0, 0.0, 0.0, 0.0, 0.0, 12786.76245054751, 0.038, -0.026000000000000002, 0.99, 192.0, 0.0, 0.0, 0.0, 0.0, 0.0, 0.0, 0.0, 0.0, 0.0, 1.740937744654919E9, 0.0, 2025-03-02 19:49:04.654
91.0, 17983.721850362046, 5417.414655377228, 0.0, 0.0, 0.0, 0.0, 0.0, 14006.899476873814, 0.038, -0.026000000000000002, 0.99, 192.0, 0.0, 0.0, 0.0, 0.0, 0.0, 0.0, 0.0, 0.0, 0.0, 1.740937744654976E9, 0.0, 2025-03-02 19:49:04.654
92.0, 17944.7851115209, 5227.134254829199, 0.0, 0.0, 0.0, 0.0, 0.0, 13467.216607000424, 0.038, -0.026000000000000002, 0.99, 192.0, 0.0, 0.0, 0.0, 0.0, 0.0, 0.0, 0.0, 0.0, 0.0, 1.740937744655018E9, 0.0, 2025-03-02 19:49:04.655
93.0, 18042.79751095742, 5153.284091148865, 0.0, 0.0, 0.0, 0.0, 0.0, 11925.348570984432, 0.038, -0.026000000000000002, 0.99, 192.0, 0.0, 0.0, 0.0, 0.0, 0.0, 0.0, 0.0, 0.0, 0.0, 1.740937744655059E9, 0.0, 2025-03-02 19:49:04.655
94.0, 18291.035984878064, 5327.29242173343, 0.0, 0.0, 0.0, 0.0, 0.0, 9909.064758904547, 0.036000000000000004, -0.026000000000000002, 0.988, 192.0, 1.0, 32.0, 255.0, 48.0, 30.0, 224.0, 0.0, 0.0, 0.0, 1.74093774465511E9, 0.0, 2025-03-02 19:49:04.655
95.0, 18193.738841264112, 5649.492818056681, 0.0, 0.0, 0.0, 0.0, 0.0, 12762.197883391129, 0.036000000000000004, -0.026000000000000002, 0.988, 192.0, 0.0, 0.0, 0.0, 0.0, 0.0, 0.0, 0.0, 0.0, 0.0, 1.740937744655164E9, 0.0, 2025-03-02 19:49:04.655
96.0, 17959.492559372495, 5395.68875976667, 0.0, 0.0, 0.0, 0.0, 0.0, 13981.306729472486, 0.036000000000000004, -0.026000000000000002, 0.988, 192.0, 0.0, 0.0, 0.0, 0.0, 0.0, 0.0, 0.0, 0.0, 0.0, 1.74093774465522E9, 0.0, 2025-03-02 19:49:04.655
97.0, 17928.200117135064, 5201.765024872426, 0.0, 0.0, 0.0, 0.0, 0.0, 13408.789146994251, 0.036000000000000004, -0.026000000000000002, 0.988, 192.0, 0.0, 0.0, 0.0, 0.0, 0.0, 0.0, 0.0, 0.0, 0.0, 1.740937744655264E9, 0.0, 2025-03-02 19:49:04.655
98.0, 18025.877240404756, 5129.9935734264345, 0.0, 0.0, 0.0, 0.0, 0.0, 11914.910306323804, 0.036000000000000004, -0.026000000000000002, 0.988, 192.0, 0.0, 0.0, 0.0, 0.0, 0.0, 0.0, 0.0, 0.0, 0.0, 1.740937744655315E9, 0.0, 2025-03-02 19:49:04.655
99.0, 18268.773647400576, 5294.278895172942, 0.0, 0.0, 0.0, 0.0, 0.0, 9897.643017487886, 0.036000000000000004, -0.026000000000000002, 0.988, 192.0, 0.0, 0.0, 0.0, 0.0, 0.0, 0.0, 0.0, 0.0, 0.0, 1.740937744655365E9, 0.0, 2025-03-02 19:49:04.655
100.0, 18178.964338179154, 5627.029314879098, 0.0, 0.0, 0.0, 0.0, 0.0, 12722.188260816129, 0.036000000000000004, -0.026000000000000002, 0.988, 192.0, 0.0, 0.0, 0.0, 0.0, 0.0, 0.0, 0.0, 0.0, 0.0, 1.740937744655412E9, 0.0, 2025-03-02 19:49:04.655
101.0, 17951.401227879673, 5372.934683911167, 0.0, 0.0, 0.0, 0.0, 0.0, 13966.398115920796, 0.036000000000000004, -0.026000000000000002, 0.988, 192.0, 0.0, 0.0, 0.0, 0.0, 0.0, 0.0, 0.0, 0.0, 0.0, 1.740937744655458E9, 0.0, 2025-03-02 19:49:04.655
102.0, 17914.207925106042, 5181.8272688182915, 0.0, 0.0, 0.0, 0.0, 0.0, 13409.482051072366, 0.036000000000000004, -0.026000000000000002, 0.988, 192.0, 0.0, 0.0, 0.0, 0.0, 0.0, 0.0, 0.0, 0.0, 0.0, 1.740937744655575E9, 0.0, 2025-03-02 19:49:04.655
103.0, 18018.411757756683, 5114.235593585443, 0.0, 0.0, 0.0, 0.0, 0.0, 11914.284457479056, 0.036000000000000004, -0.026000000000000002, 0.988, 192.0, 0.0, 0.0, 0.0, 0.0, 0.0, 0.0, 0.0, 0.0, 0.0, 1.740937744655739E9, 0.0, 2025-03-02 19:49:04.655
104.0, 18272.260519535605, 5273.178848407131, 0.0, 0.0, 0.0, 0.0, 0.0, 9873.503133476155, 0.036000000000000004, -0.026000000000000002, 0.986, 192.0, 1.0, 32.0, 255.0, 48.0, 30.0, 208.0, 0.0, 0.0, 0.0, 1.740937744655824E9, 0.0, 2025-03-02 19:49:04.655
105.0, 18183.322928347938, 5617.172195574307, 0.0, 0.0, 0.0, 0.0, 0.0, 12707.592571686813, 0.036000000000000004, -0.026000000000000002, 0.986, 192.0, 0.0, 0.0, 0.0, 0.0, 0.0, 0.0, 0.0, 0.0, 0.0, 1.740937744714279E9, 0.0, 2025-03-02 19:49:04.714
106.0, 17947.02028596643, 5373.337015311363, 0.0, 0.0, 0.0, 0.0, 0.0, 13982.714889373172, 0.036000000000000004, -0.026000000000000002, 0.986, 192.0, 0.0, 0.0, 0.0, 0.0, 0.0, 0.0, 0.0, 0.0, 0.0, 1.740937744714328E9, 0.0, 2025-03-02 19:49:04.714
107.0, 17926.479032812003, 5178.586265872272, 0.0, 0.0, 0.0, 0.0, 0.0, 13422.066083200703, 0.036000000000000004, -0.026000000000000002, 0.986, 192.0, 0.0, 0.0, 0.0, 0.0, 0.0, 0.0, 0.0, 0.0, 0.0, 1.740937744714356E9, 0.0, 2025-03-02 19:49:04.714
108.0, 18034.75088295351, 5115.017904641379, 0.0, 0.0, 0.0, 0.0, 0.0, 11944.213443304712, 0.036000000000000004, -0.026000000000000002, 0.986, 192.0, 0.0, 0.0, 0.0, 0.0, 0.0, 0.0, 0.0, 0.0, 0.0, 1.740937744714382E9, 0.0, 2025-03-02 19:49:04.714
109.0, 18284.799848175033, 5283.5500578343945, 0.0, 0.0, 0.0, 0.0, 0.0, 9879.33693877899, 0.036000000000000004, -0.026000000000000002, 0.986, 192.0, 0.0, 0.0, 0.0, 0.0, 0.0, 0.0, 0.0, 0.0, 0.0, 1.740937744714407E9, 0.0, 2025-03-02 19:49:04.714
110.0, 18192.755364508077, 5622.1789863322965, 0.0, 0.0, 0.0, 0.0, 0.0, 12698.741280882512, 0.036000000000000004, -0.026000000000000002, 0.986, 192.0, 0.0, 0.0, 0.0, 0.0, 0.0, 0.0, 0.0, 0.0, 0.0, 1.740937744714459E9, 0.0, 2025-03-02 19:49:04.714
111.0, 17954.530472103415, 5376.510963024016, 0.0, 0.0, 0.0, 0.0, 0.0, 13988.526342931551, 0.036000000000000004, -0.026000000000000002, 0.986, 192.0, 0.0, 0.0, 0.0, 0.0, 0.0, 0.0, 0.0, 0.0, 0.0, 1.740937744714493E9, 0.0, 2025-03-02 19:49:04.714
112.0, 17916.286637340385, 5163.4541348760295, 0.0, 0.0, 0.0, 0.0, 0.0, 13412.924219718483, 0.036000000000000004, -0.026000000000000002, 0.986, 192.0, 0.0, 0.0, 0.0, 0.0, 0.0, 0.0, 0.0, 0.0, 0.0, 1.740937744714518E9, 0.0, 2025-03-02 19:49:04.714
113.0, 18008.197010540607, 5085.0889188157225, 0.0, 0.0, 0.0, 0.0, 0.0, 11938.446693235242, 0.036000000000000004, -0.026000000000000002, 0.986, 192.0, 0.0, 0.0, 0.0, 0.0, 0.0, 0.0, 0.0, 0.0, 0.0, 1.740937744714542E9, 0.0, 2025-03-02 19:49:04.714
114.0, 18259.117693795884, 5245.686202727104, 0.0, 0.0, 0.0, 0.0, 0.0, 9854.19122626677, 0.032, -0.03, 0.988, 192.0, 1.0, 0.0, 255.0, 16.0, 30.0, 224.0, 0.0, 0.0, 0.0, 1.740937744714567E9, 0.0, 2025-03-02 19:49:04.714
115.0, 18171.543559019992, 5580.62709338988, 0.0, 0.0, 0.0, 0.0, 0.0, 12658.664603074147, 0.032, -0.03, 0.988, 192.0, 0.0, 0.0, 0.0, 0.0, 0.0, 0.0, 0.0, 0.0, 0.0, 1.740937744714594E9, 0.0, 2025-03-02 19:49:04.714
116.0, 17938.459567840047, 5339.742343395036, 0.0, 0.0, 0.0, 0.0, 0.0, 13985.240636496621, 0.032, -0.03, 0.988, 192.0, 0.0, 0.0, 0.0, 0.0, 0.0, 0.0, 0.0, 0.0, 0.0, 1.740937744714619E9, 0.0, 2025-03-02 19:49:04.714
117.0, 17905.714262213023, 5139.649527031127, 0.0, 0.0, 0.0, 0.0, 0.0, 13415.897001731038, 0.032, -0.03, 0.988, 192.0, 0.0, 0.0, 0.0, 0.0, 0.0, 0.0, 0.0, 0.0, 0.0, 1.740937744714643E9, 0.0, 2025-03-02 19:49:04.714
118.0, 18006.252408772994, 5069.666215141561, 0.0, 0.0, 0.0, 0.0, 0.0, 11970.007356406137, 0.032, -0.03, 0.988, 192.0, 0.0, 0.0, 0.0, 0.0, 0.0, 0.0, 0.0, 0.0, 0.0, 1.740937744714717E9, 0.0, 2025-03-02 19:49:04.714
119.0, 18257.17309202827, 5227.715400185037, 0.0, 0.0, 0.0, 0.0, 0.0, 9860.896749603362, 0.032, -0.03, 0.988, 192.0, 0.0, 0.0, 0.0, 0.0, 0.0, 0.0, 0.0, 0.0, 0.0, 1.740937744714743E9, 0.0, 2025-03-02 19:49:04.714
120.0, 18173.10818113186, 5574.346253197939, 0.0, 0.0, 0.0, 0.0, 0.0, 12646.102922690265, 0.032, -0.03, 0.988, 192.0, 0.0, 0.0, 0.0, 0.0, 0.0, 0.0, 0.0, 0.0, 0.0, 1.740937744774082E9, 0.0, 2025-03-02 19:49:04.774
121.0, 17947.84730051128, 5343.408029485707, 0.0, 0.0, 0.0, 0.0, 0.0, 14003.569066949973, 0.032, -0.03, 0.988, 192.0, 0.0, 0.0, 0.0, 0.0, 0.0, 0.0, 0.0, 0.0, 0.0, 1.74093774477416E9, 0.0, 2025-03-02 19:49:04.774
122.0, 17914.654959995147, 5133.525149050373, 0.0, 0.0, 0.0, 0.0, 0.0, 13426.894060003051, 0.032, -0.03, 0.988, 192.0, 0.0, 0.0, 0.0, 0.0, 0.0, 0.0, 0.0, 0.0, 0.0, 1.740937744774251E9, 0.0, 2025-03-02 19:49:04.774
123.0, 18005.023062827953, 5066.559322662273, 0.0, 0.0, 0.0, 0.0, 0.0, 11983.686624012784, 0.04, -0.028, 0.988, 192.0, 1.0, 64.0, 255.0, 32.0, 30.0, 224.0, 0.0, 0.0, 0.0, 1.740937744774304E9, 0.0, 2025-03-02 19:49:04.774
124.0, 18257.75423738411, 5228.207138563053, 0.0, 0.0, 0.0, 0.0, 0.0, 9861.790819381575, 0.04, -0.028, 0.988, 192.0, 0.0, 0.0, 0.0, 0.0, 0.0, 0.0, 0.0, 0.0, 0.0, 1.740937744774353E9, 0.0, 2025-03-02 19:49:04.774
125.0, 18176.751515478078, 5572.803982830523, 0.0, 0.0, 0.0, 0.0, 0.0, 12647.131102935207, 0.04, -0.028, 0.988, 192.0, 0.0, 0.0, 0.0, 0.0, 0.0, 0.0, 0.0, 0.0, 0.0, 1.740937744774398E9, 0.0, 2025-03-02 19:49:04.774
126.0, 17935.44208233858, 5329.52759617896, 0.0, 0.0, 0.0, 0.0, 0.0, 13999.76927039257, 0.04, -0.028, 0.988, 192.0, 0.0, 0.0, 0.0, 0.0, 0.0, 0.0, 0.0, 0.0, 0.0, 1.740937744774443E9, 0.0, 2025-03-02 19:49:04.774
127.0, 17903.546143000858, 5119.287087832343, 0.0, 0.0, 0.0, 0.0, 0.0, 13430.872670516095, 0.04, -0.028, 0.988, 192.0, 0.0, 0.0, 0.0, 0.0, 0.0, 0.0, 0.0, 0.0, 0.0, 1.740937744774489E9, 0.0, 2025-03-02 19:49:04.774
128.0, 18001.67030115966, 5048.09678174219, 0.0, 0.0, 0.0, 0.0, 0.0, 12022.869232042936, 0.04, -0.028, 0.988, 192.0, 0.0, 0.0, 0.0, 0.0, 0.0, 0.0, 0.0, 0.0, 0.0, 1.740937744774541E9, 0.0, 2025-03-02 19:49:04.774
129.0, 18258.08951355094, 5201.005065560945, 0.0, 0.0, 0.0, 0.0, 0.0, 9878.979310867704, 0.04, -0.028, 0.988, 192.0, 0.0, 0.0, 0.0, 0.0, 0.0, 0.0, 0.0, 0.0, 0.0, 1.740937744774589E9, 0.0, 2025-03-02 19:49:04.774
130.0, 18174.382230565814, 5547.568863340481, 0.0, 0.0, 0.0, 0.0, 0.0, 12642.236070899497, 0.04, -0.028, 0.988, 192.0, 0.0, 0.0, 0.0, 0.0, 0.0, 0.0, 0.0, 0.0, 0.0, 1.740937744774634E9, 0.0, 2025-03-02 19:49:04.774
131.0, 17937.78901550639, 5322.397389697718, 0.0, 0.0, 0.0, 0.0, 0.0, 14030.480567274162, 0.04, -0.028, 0.988, 192.0, 0.0, 0.0, 0.0, 0.0, 0.0, 0.0, 0.0, 0.0, 0.0, 1.74093774477468E9, 0.0, 2025-03-02 19:49:04.774
132.0, 17906.96595990252, 5122.7739599673705, 0.0, 0.0, 0.0, 0.0, 0.0, 13445.557766623231, 0.04, -0.028, 0.988, 192.0, 0.0, 0.0, 0.0, 0.0, 0.0, 0.0, 0.0, 0.0, 0.0, 1.740937744774725E9, 0.0, 2025-03-02 19:49:04.774
133.0, 18011.773289653454, 5047.694450341994, 0.0, 0.0, 0.0, 0.0, 0.0, 12030.33471469101, 0.038, -0.032, 0.99, 192.0, 1.0, 48.0, 255.0, 0.0, 30.0, 240.0, 0.0, 0.0, 0.0, 1.740937744774758E9, 0.0, 2025-03-02 19:49:04.774
134.0, 18265.085609565453, 5195.573591658305, 0.0, 0.0, 0.0, 0.0, 0.0, 9864.964767094227, 0.038, -0.032, 0.99, 192.0, 0.0, 0.0, 0.0, 0.0, 0.0, 0.0, 0.0, 0.0, 0.0, 1.740937744774784E9, 0.0, 2025-03-02 19:49:04.774
135.0, 18169.040163640995, 5540.371601625872, 0.0, 0.0, 0.0, 0.0, 0.0, 12606.897962915655, 0.038, -0.032, 0.99, 192.0, 0.0, 0.0, 0.0, 0.0, 0.0, 0.0, 0.0, 0.0, 0.0, 1.740937744834321E9, 0.0, 2025-03-02 19:49:04.834
136.0, 17930.703512514057, 5309.969819780567, 0.0, 0.0, 0.0, 0.0, 0.0, 14023.372712537375, 0.038, -0.032, 0.99, 192.0, 0.0, 0.0, 0.0, 0.0, 0.0, 0.0, 0.0, 0.0, 0.0, 1.740937744834388E9, 0.0, 2025-03-02 19:49:04.834
137.0, 17899.88045691019, 5102.657389957594, 0.0, 0.0, 0.0, 0.0, 0.0, 13440.483920631877, 0.038, -0.032, 0.99, 192.0, 0.0, 0.0, 0.0, 0.0, 0.0, 0.0, 0.0, 0.0, 0.0, 1.740937744834435E9, 0.0, 2025-03-02 19:49:04.834
138.0, 18001.51383894847, 5042.128865972622, 0.0, 0.0, 0.0, 0.0, 0.0, 12051.188892267812, 0.038, -0.032, 0.99, 192.0, 0.0, 0.0, 0.0, 0.0, 0.0, 0.0, 0.0, 0.0, 0.0, 1.740937744834481E9, 0.0, 2025-03-02 19:49:04.834
139.0, 18253.127426281862, 5180.21794321751, 0.0, 0.0, 0.0, 0.0, 0.0, 9859.3768309804, 0.038, -0.032, 0.99, 192.0, 0.0, 0.0, 0.0, 0.0, 0.0, 0.0, 0.0, 0.0, 0.0, 1.740937744834526E9, 0.0, 2025-03-02 19:49:04.834
140.0, 18169.084867129906, 5525.708857263191, 0.0, 0.0, 0.0, 0.0, 0.0, 12593.665730198114, 0.038, -0.032, 0.99, 192.0, 0.0, 0.0, 0.0, 0.0, 0.0, 0.0, 0.0, 0.0, 0.0, 1.740937744834572E9, 0.0, 2025-03-02 19:49:04.834
141.0, 17928.088358412788, 5299.799776053403, 0.0, 0.0, 0.0, 0.0, 0.0, 14031.754616708115, 0.038, -0.032, 0.99, 192.0, 0.0, 0.0, 0.0, 0.0, 0.0, 0.0, 0.0, 0.0, 0.0, 1.74093774483462E9, 0.0, 2025-03-02 19:49:04.834
142.0, 17895.924198141598, 5077.824601867748, 0.0, 0.0, 0.0, 0.0, 0.0, 13443.367295666612, 0.038, -0.032, 0.99, 192.0, 0.0, 0.0, 0.0, 0.0, 0.0, 0.0, 0.0, 0.0, 0.0, 1.740937744834658E9, 0.0, 2025-03-02 19:49:04.834
143.0, 17991.343795221306, 4999.70525499645, 0.0, 0.0, 0.0, 0.0, 0.0, 12076.088735591024, 0.036000000000000004, -0.028, 0.994, 192.0, 1.0, 32.0, 255.0, 32.0, 31.0, 16.0, 0.0, 0.0, 0.0, 1.740937744834684E9, 0.0, 2025-03-02 19:49:04.834
144.0, 18244.6561151333, 5155.45221036103, 0.0, 0.0, 0.0, 0.0, 0.0, 9869.815095641028, 0.036000000000000004, -0.028, 0.994, 192.0, 0.0, 0.0, 0.0, 0.0, 0.0, 0.0, 0.0, 0.0, 0.0, 1.74093774483471E9, 0.0, 2025-03-02 19:49:04.834
145.0, 18165.195663594684, 5508.654476243792, 0.0, 0.0, 0.0, 0.0, 0.0, 12580.29938701384, 0.036000000000000004, -0.028, 0.994, 192.0, 0.0, 0.0, 0.0, 0.0, 0.0, 0.0, 0.0, 0.0, 0.0, 1.740937744834735E9, 0.0, 2025-03-02 19:49:04.834
146.0, 17920.73463448699, 5277.0904036868105, 0.0, 0.0, 0.0, 0.0, 0.0, 14051.178282639776, 0.036000000000000004, -0.028, 0.994, 192.0, 0.0, 0.0, 0.0, 0.0, 0.0, 0.0, 0.0, 0.0, 0.0, 1.74093774483476E9, 0.0, 2025-03-02 19:49:04.834
147.0, 17887.87757013769, 5069.7109186304715, 0.0, 0.0, 0.0, 0.0, 0.0, 13453.827912071696, 0.036000000000000004, -0.028, 0.994, 192.0, 0.0, 0.0, 0.0, 0.0, 0.0, 0.0, 0.0, 0.0, 0.0, 1.740937744834785E9, 0.0, 2025-03-02 19:49:04.834
148.0, 17983.833609084322, 5002.99096143138, 0.0, 0.0, 0.0, 0.0, 0.0, 12083.978901383747, 0.036000000000000004, -0.028, 0.994, 192.0, 0.0, 0.0, 0.0, 0.0, 0.0, 0.0, 0.0, 0.0, 0.0, 1.74093774483481E9, 0.0, 2025-03-02 19:49:04.834
149.0, 18247.584193656945, 5142.532902065862, 0.0, 0.0, 0.0, 0.0, 0.0, 9884.589598725986, 0.036000000000000004, -0.028, 0.994, 192.0, 0.0, 0.0, 0.0, 0.0, 0.0, 0.0, 0.0, 0.0, 0.0, 1.740937744834835E9, 0.0, 2025-03-02 19:49:04.834
150.0, 18169.26368108555, 5486.168621321753, 0.0, 0.0, 0.0, 0.0, 0.0, 12580.992291091954, 0.036000000000000004, -0.028, 0.994, 192.0, 0.0, 0.0, 0.0, 0.0, 0.0, 0.0, 0.0, 0.0, 0.0, 1.740937744894813E9, 0.0, 2025-03-02 19:49:04.894
151.0, 17921.53929728738, 5259.879560456224, 0.0, 0.0, 0.0, 0.0, 0.0, 14049.099570405433, 0.036000000000000004, -0.028, 0.994, 192.0, 0.0, 0.0, 0.0, 0.0, 0.0, 0.0, 0.0, 0.0, 0.0, 1.740937744894867E9, 0.0, 2025-03-02 19:49:04.894
152.0, 17887.63170094868, 5048.946148031491, 0.0, 0.0, 0.0, 0.0, 0.0, 13450.028115514293, 0.036000000000000004, -0.028, 0.994, 192.0, 0.0, 0.0, 0.0, 0.0, 0.0, 0.0, 0.0, 0.0, 0.0, 1.740937744894948E9, 0.0, 2025-03-02 19:49:04.894
153.0, 17984.727678862535, 4988.238810090877, 0.0, 0.0, 0.0, 0.0, 0.0, 12116.321875610576, 0.036000000000000004, -0.022, 0.998, 192.0, 1.0, 32.0, 255.0, 80.0, 31.0, 48.0, 0.0, 0.0, 0.0, 1.740937744894986E9, 0.0, 2025-03-02 19:49:04.894
154.0, 18245.818405844977, 5121.745779722426, 0.0, 0.0, 0.0, 0.0, 0.0, 9885.126040592915, 0.036000000000000004, -0.022, 0.998, 192.0, 0.0, 0.0, 0.0, 0.0, 0.0, 0.0, 0.0, 0.0, 0.0, 1.740937744895026E9, 0.0, 2025-03-02 19:49:04.895
155.0, 18174.40458231027, 5472.13172580382, 0.0, 0.0, 0.0, 0.0, 0.0, 12554.147846001131, 0.036000000000000004, -0.022, 0.998, 192.0, 0.0, 0.0, 0.0, 0.0, 0.0, 0.0, 0.0, 0.0, 0.0, 1.740937744895086E9, 0.0, 2025-03-02 19:49:04.895
156.0, 17934.391550349184, 5251.6764702411265, 0.0, 0.0, 0.0, 0.0, 0.0, 14052.899366962834, 0.036000000000000004, -0.022, 0.998, 192.0, 0.0, 0.0, 0.0, 0.0, 0.0, 0.0, 0.0, 0.0, 0.0, 1.740937744895138E9, 0.0, 2025-03-02 19:49:04.895
157.0, 17888.01168060442, 5032.51761585684, 0.0, 0.0, 0.0, 0.0, 0.0, 13444.216661955914, 0.036000000000000004, -0.022, 0.998, 192.0, 0.0, 0.0, 0.0, 0.0, 0.0, 0.0, 0.0, 0.0, 0.0, 1.740937744895184E9, 0.0, 2025-03-02 19:49:04.895
158.0, 17978.60330088178, 4964.322443523699, 0.0, 0.0, 0.0, 0.0, 0.0, 12124.234393147755, 0.036000000000000004, -0.022, 0.998, 192.0, 0.0, 0.0, 0.0, 0.0, 0.0, 0.0, 0.0, 0.0, 0.0, 1.740937744895231E9, 0.0, 2025-03-02 19:49:04.895
159.0, 18246.533661667545, 5103.6408667136275, 0.0, 0.0, 0.0, 0.0, 0.0, 9883.784935925596, 0.036000000000000004, -0.022, 0.998, 192.0, 0.0, 0.0, 0.0, 0.0, 0.0, 0.0, 0.0, 0.0, 0.0, 1.740937744895257E9, 0.0, 2025-03-02 19:49:04.895
160.0, 18181.780657980522, 5460.933501831711, 0.0, 0.0, 0.0, 0.0, 0.0, 12533.606592846703, 0.036000000000000004, -0.022, 0.998, 192.0, 0.0, 0.0, 0.0, 0.0, 0.0, 0.0, 0.0, 0.0, 0.0, 1.740937744895281E9, 0.0, 2025-03-02 19:49:04.895
161.0, 17933.855108482257, 5240.522949757928, 0.0, 0.0, 0.0, 0.0, 0.0, 14077.329823652486, 0.036000000000000004, -0.022, 0.998, 192.0, 0.0, 0.0, 0.0, 0.0, 0.0, 0.0, 0.0, 0.0, 0.0, 1.740937744895307E9, 0.0, 2025-03-02 19:49:04.895
162.0, 17888.615177704713, 5025.9238512425245, 0.0, 0.0, 0.0, 0.0, 0.0, 13452.978545782393, 0.036000000000000004, -0.022, 0.998, 192.0, 0.0, 0.0, 0.0, 0.0, 0.0, 0.0, 0.0, 0.0, 0.0, 1.740937744895331E9, 0.0, 2025-03-02 19:49:04.895
163.0, 17980.480847416027, 4954.733545152372, 0.0, 0.0, 0.0, 0.0, 0.0, 12136.751370042726, 0.03, -0.028, 1.0, 192.0, 0.0, 240.0, 255.0, 32.0, 31.0, 64.0, 0.0, 0.0, 0.0, 1.740937744895356E9, 0.0, 2025-03-02 19:49:04.895
164.0, 18245.863109333888, 5087.77112815036, 0.0, 0.0, 0.0, 0.0, 0.0, 9880.946264379772, 0.03, -0.028, 1.0, 192.0, 0.0, 0.0, 0.0, 0.0, 0.0, 0.0, 0.0, 0.0, 0.0, 1.740937744895383E9, 0.0, 2025-03-02 19:49:04.895
165.0, 18173.666974743246, 5439.9228620437225, 0.0, 0.0, 0.0, 0.0, 0.0, 12515.367569371174, 0.03, -0.028, 1.0, 192.0, 0.0, 0.0, 0.0, 0.0, 0.0, 0.0, 0.0, 0.0, 0.0, 1.740937744955131E9, 0.0, 2025-03-02 19:49:04.955
166.0, 17928.848317724267, 5225.1449495726765, 0.0, 0.0, 0.0, 0.0, 0.0, 14056.006259442123, 0.03, -0.028, 1.0, 192.0, 0.0, 0.0, 0.0, 0.0, 0.0, 0.0, 0.0, 0.0, 0.0, 1.7409377449552E9, 0.0, 2025-03-02 19:49:04.955
167.0, 17886.60352070374, 5006.857813222148, 0.0, 0.0, 0.0, 0.0, 0.0, 13446.161263723525, 0.03, -0.028, 1.0, 192.0, 0.0, 0.0, 0.0, 0.0, 0.0, 0.0, 0.0, 0.0, 0.0, 1.740937744955251E9, 0.0, 2025-03-02 19:49:04.955
168.0, 17984.437106184614, 4941.098981034635, 0.0, 0.0, 0.0, 0.0, 0.0, 12138.025419476679, 0.03, -0.028, 1.0, 192.0, 0.0, 0.0, 0.0, 0.0, 0.0, 0.0, 0.0, 0.0, 0.0, 1.740937744955277E9, 0.0, 2025-03-02 19:49:04.955
169.0, 18247.27126923457, 5083.256075770388, 0.0, 0.0, 0.0, 0.0, 0.0, 9861.835522870484, 0.03, -0.028, 1.0, 192.0, 0.0, 0.0, 0.0, 0.0, 0.0, 0.0, 0.0, 0.0, 0.0, 1.740937744955358E9, 0.0, 2025-03-02 19:49:04.955
170.0, 18165.240367083596, 5421.057989723443, 0.0, 0.0, 0.0, 0.0, 0.0, 12479.247150331397, 0.03, -0.028, 1.0, 192.0, 0.0, 0.0, 0.0, 0.0, 0.0, 0.0, 0.0, 0.0, 0.0, 1.740937744955384E9, 0.0, 2025-03-02 19:49:04.955
171.0, 17920.041730408877, 5209.990466831979, 0.0, 0.0, 0.0, 0.0, 0.0, 14053.614622785404, 0.03, -0.028, 1.0, 192.0, 0.0, 0.0, 0.0, 0.0, 0.0, 0.0, 0.0, 0.0, 0.0, 1.740937744955409E9, 0.0, 2025-03-02 19:49:04.955
172.0, 17877.014622332408, 4993.223249104411, 0.0, 0.0, 0.0, 0.0, 0.0, 13444.596641611653, 0.038, -0.028, 0.992, 192.0, 1.0, 48.0, 255.0, 32.0, 31.0, 0.0, 0.0, 0.0, 0.0, 1.740937744955434E9, 0.0, 2025-03-02 19:49:04.955
173.0, 17991.947292321598, 4943.915300836004, 0.0, 0.0, 0.0, 0.0, 0.0, 12182.9747775763, 0.038, -0.028, 0.992, 192.0, 0.0, 0.0, 0.0, 0.0, 0.0, 0.0, 0.0, 0.0, 0.0, 1.74093774495546E9, 0.0, 2025-03-02 19:49:04.955
174.0, 18251.495748936624, 5074.8741715996475, 0.0, 0.0, 0.0, 0.0, 0.0, 9870.99973809716, 0.038, -0.028, 0.992, 192.0, 0.0, 0.0, 0.0, 0.0, 0.0, 0.0, 0.0, 0.0, 0.0, 1.740937744955485E9, 0.0, 2025-03-02 19:49:04.955
175.0, 18179.813704468455, 5431.920937528723, 0.0, 0.0, 0.0, 0.0, 0.0, 12472.0945921057, 0.038, -0.028, 0.992, 192.0, 0.0, 0.0, 0.0, 0.0, 0.0, 0.0, 0.0, 0.0, 0.0, 1.74093774495551E9, 0.0, 2025-03-02 19:49:04.955
176.0, 17931.41876833663, 5221.389856504185, 0.0, 0.0, 0.0, 0.0, 0.0, 14081.330785909986, 0.038, -0.028, 0.992, 192.0, 0.0, 0.0, 0.0, 0.0, 0.0, 0.0, 0.0, 0.0, 0.0, 1.740937744955535E9, 0.0, 2025-03-02 19:49:04.955
177.0, 17900.10397435474, 5002.588630031184, 0.0, 0.0, 0.0, 0.0, 0.0, 13473.385688470089, 0.038, -0.028, 0.992, 192.0, 0.0, 0.0, 0.0, 0.0, 0.0, 0.0, 0.0, 0.0, 0.0, 1.740937744955561E9, 0.0, 2025-03-02 19:49:04.955
178.0, 17984.61592014026, 4939.132027522567, 0.0, 0.0, 0.0, 0.0, 0.0, 12203.404272008453, 0.038, -0.028, 0.992, 192.0, 0.0, 0.0, 0.0, 0.0, 0.0, 0.0, 0.0, 0.0, 0.0, 1.740937744955586E9, 0.0, 2025-03-02 19:49:04.955
179.0, 18222.997274756108, 5032.137636201101, 0.0, 0.0, 0.0, 0.0, 0.0, 9855.152351278348, 0.038, -0.028, 0.992, 192.0, 0.0, 0.0, 0.0, 0.0, 0.0, 0.0, 0.0, 0.0, 0.0, 1.74093774495561E9, 0.0, 2025-03-02 19:49:04.955
180.0, 18159.49596875858, 5371.325358310385, 0.0, 0.0, 0.0, 0.0, 0.0, 12420.395007180574, 0.038, -0.028, 0.992, 192.0, 0.0, 0.0, 0.0, 0.0, 0.0, 0.0, 0.0, 0.0, 0.0, 1.74093774501433E9, 0.0, 2025-03-02 19:49:05.014
181.0, 17916.68896874058, 5176.59696061575, 0.0, 0.0, 0.0, 0.0, 0.0, 14054.173416396789, 0.038, -0.028, 0.992, 192.0, 0.0, 0.0, 0.0, 0.0, 0.0, 0.0, 0.0, 0.0, 0.0, 1.740937745014378E9, 0.0, 2025-03-02 19:49:05.014
182.0, 17877.662822921615, 4955.672318419494, 0.0, 0.0, 0.0, 0.0, 0.0, 13430.604449582632, 0.034, -0.028, 0.988, 192.0, 1.0, 16.0, 255.0, 32.0, 30.0, 224.0, 0.0, 0.0, 0.0, 1.740937745014405E9, 0.0, 2025-03-02 19:49:05.014
183.0, 17949.478977856514, 4876.994177936814, 0.0, 0.0, 0.0, 0.0, 0.0, 12178.370318218509, 0.034, -0.028, 0.988, 192.0, 0.0, 0.0, 0.0, 0.0, 0.0, 0.0, 0.0, 0.0, 0.0, 1.74093774501445E9, 0.0, 2025-03-02 19:49:05.014
184.0, 18217.476393875648, 5014.055074936757, 0.0, 0.0, 0.0, 0.0, 0.0, 9850.99492680966, 0.034, -0.028, 0.988, 192.0, 0.0, 0.0, 0.0, 0.0, 0.0, 0.0, 0.0, 0.0, 0.0, 1.740937745014487E9, 0.0, 2025-03-02 19:49:05.014
185.0, 18171.364745064348, 5382.478878793583, 0.0, 0.0, 0.0, 0.0, 0.0, 12411.007274509344, 0.034, -0.028, 0.988, 192.0, 0.0, 0.0, 0.0, 0.0, 0.0, 0.0, 0.0, 0.0, 0.0, 1.740937745014528E9, 0.0, 2025-03-02 19:49:05.014
186.0, 17916.443099551572, 5182.944856041057, 0.0, 0.0, 0.0, 0.0, 0.0, 14071.607777071928, 0.034, -0.028, 0.988, 192.0, 0.0, 0.0, 0.0, 0.0, 0.0, 0.0, 0.0, 0.0, 0.0, 1.74093774501464E9, 0.0, 2025-03-02 19:49:05.014
187.0, 17867.716296639002, 4942.328326979677, 0.0, 0.0, 0.0, 0.0, 0.0, 13457.225377228902, 0.034, -0.028, 0.988, 192.0, 0.0, 0.0, 0.0, 0.0, 0.0, 0.0, 0.0, 0.0, 0.0, 1.740937745014699E9, 0.0, 2025-03-02 19:49:05.014
188.0, 17946.0368092104, 4861.280901584733, 0.0, 0.0, 0.0, 0.0, 0.0, 12201.973760363313, 0.034, -0.028, 0.988, 192.0, 0.0, 0.0, 0.0, 0.0, 0.0, 0.0, 0.0, 0.0, 0.0, 1.740937745014744E9, 0.0, 2025-03-02 19:49:05.014
189.0, 18219.644513087813, 4994.631409005095, 0.0, 0.0, 0.0, 0.0, 0.0, 9822.764673562608, 0.034, -0.028, 0.988, 192.0, 0.0, 0.0, 0.0, 0.0, 0.0, 0.0, 0.0, 0.0, 0.0, 1.740937745014769E9, 0.0, 2025-03-02 19:49:05.014
190.0, 18173.912843932252, 5357.1543523257205, 0.0, 0.0, 0.0, 0.0, 0.0, 12368.941291444457, 0.034, -0.028, 0.988, 192.0, 0.0, 0.0, 0.0, 0.0, 0.0, 0.0, 0.0, 0.0, 0.0, 1.740937745014794E9, 0.0, 2025-03-02 19:49:05.014
191.0, 17928.11071015724, 5158.246178417942, 0.0, 0.0, 0.0, 0.0, 0.0, 14051.40180008433, 0.034, -0.028, 0.988, 192.0, 0.0, 0.0, 0.0, 0.0, 0.0, 0.0, 0.0, 0.0, 0.0, 1.740937745014819E9, 0.0, 2025-03-02 19:49:05.014
192.0, 17875.82997987628, 4926.503291905319, 0.0, 0.0, 0.0, 0.0, 0.0, 13423.720112290397, 0.034, -0.03, 0.99, 192.0, 1.0, 16.0, 255.0, 16.0, 30.0, 240.0, 0.0, 0.0, 0.0, 1.740937745014844E9, 0.0, 2025-03-02 19:49:05.014
193.0, 17950.30599240136, 4861.593826007107, 0.0, 0.0, 0.0, 0.0, 0.0, 12192.183696291888, 0.034, -0.03, 0.99, 192.0, 0.0, 0.0, 0.0, 0.0, 0.0, 0.0, 0.0, 0.0, 0.0, 1.740937745014871E9, 0.0, 2025-03-02 19:49:05.014
194.0, 18218.571629353955, 4985.154269356045, 0.0, 0.0, 0.0, 0.0, 0.0, 9825.066903241504, 0.034, -0.03, 0.99, 192.0, 0.0, 0.0, 0.0, 0.0, 0.0, 0.0, 0.0, 0.0, 0.0, 1.740937745014896E9, 0.0, 2025-03-02 19:49:05.014
195.0, 18170.87300668633, 5350.649994689226, 0.0, 0.0, 0.0, 0.0, 0.0, 12343.974392887878, 0.034, -0.03, 0.99, 192.0, 0.0, 0.0, 0.0, 0.0, 0.0, 0.0, 0.0, 0.0, 0.0, 1.740937745074094E9, 0.0, 2025-03-02 19:49:05.074
196.0, 17918.8794396972, 5151.16067542561, 0.0, 0.0, 0.0, 0.0, 0.0, 14052.899366962834, 0.034, -0.03, 0.99, 192.0, 0.0, 0.0, 0.0, 0.0, 0.0, 0.0, 0.0, 0.0, 0.0, 1.740937745074166E9, 0.0, 2025-03-02 19:49:05.074
197.0, 17867.135151283164, 4920.803597069215, 0.0, 0.0, 0.0, 0.0, 0.0, 13425.418844869, 0.034, -0.03, 0.99, 192.0, 0.0, 0.0, 0.0, 0.0, 0.0, 0.0, 0.0, 0.0, 0.0, 1.74093774507422E9, 0.0, 2025-03-02 19:49:05.074
198.0, 17948.36139063375, 4865.371270820055, 0.0, 0.0, 0.0, 0.0, 0.0, 12225.823071697125, 0.034, -0.03, 0.99, 192.0, 0.0, 0.0, 0.0, 0.0, 0.0, 0.0, 0.0, 0.0, 0.0, 1.740937745074247E9, 0.0, 2025-03-02 19:49:05.074
199.0, 18209.496821105102, 4972.883161650081, 0.0, 0.0, 0.0, 0.0, 0.0, 9825.08925498596, 0.034, -0.03, 0.99, 192.0, 0.0, 0.0, 0.0, 0.0, 0.0, 0.0, 0.0, 0.0, 0.0, 1.740937745074273E9, 0.0, 2025-03-02 19:49:05.074
200.0, 18159.40656178076, 5324.654915887704, 0.0, 0.0, 0.0, 0.0, 0.0, 12300.634360389038, 0.034, -0.03, 0.99, 192.0, 0.0, 0.0, 0.0, 0.0, 0.0, 0.0, 0.0, 0.0, 0.0, 1.740937745074298E9, 0.0, 2025-03-02 19:49:05.074
201.0, 17907.189477347074, 5127.758398980904, 0.0, 0.0, 0.0, 0.0, 0.0, 14048.697239005238, 0.034, -0.03, 0.99, 192.0, 0.0, 0.0, 0.0, 0.0, 0.0, 0.0, 0.0, 0.0, 0.0, 1.740937745074323E9, 0.0, 2025-03-02 19:49:05.074
202.0, 17856.071037777787, 4888.6841402869395, 0.0, 0.0, 0.0, 0.0, 0.0, 13436.035923485271, 0.034, -0.024, 0.99, 192.0, 1.0, 16.0, 255.0, 64.0, 30.0, 240.0, 0.0, 0.0, 0.0, 1.740937745074348E9, 0.0, 2025-03-02 19:49:05.074
203.0, 17926.814308978835, 4820.2430987647895, 0.0, 0.0, 0.0, 0.0, 0.0, 12225.51014727475, 0.034, -0.024, 0.99, 192.0, 0.0, 0.0, 0.0, 0.0, 0.0, 0.0, 0.0, 0.0, 0.0, 1.740937745074424E9, 0.0, 2025-03-02 19:49:05.074
204.0, 18187.88268421682, 4939.534358922763, 0.0, 0.0, 0.0, 0.0, 0.0, 9803.788042520053, 0.034, -0.024, 0.99, 192.0, 0.0, 0.0, 0.0, 0.0, 0.0, 0.0, 0.0, 0.0, 0.0, 1.740937745074449E9, 0.0, 2025-03-02 19:49:05.074
205.0, 18148.230689553107, 5302.14670922121, 0.0, 0.0, 0.0, 0.0, 0.0, 12266.1456186945, 0.034, -0.024, 0.99, 192.0, 0.0, 0.0, 0.0, 0.0, 0.0, 0.0, 0.0, 0.0, 0.0, 1.740937745074474E9, 0.0, 2025-03-02 19:49:05.074
206.0, 17903.9261226566, 5105.652523714605, 0.0, 0.0, 0.0, 0.0, 0.0, 14025.697293960726, 0.034, -0.024, 0.99, 192.0, 0.0, 0.0, 0.0, 0.0, 0.0, 0.0, 0.0, 0.0, 0.0, 1.740937745074499E9, 0.0, 2025-03-02 19:49:05.074
207.0, 17872.700735652536, 4883.386776851032, 0.0, 0.0, 0.0, 0.0, 0.0, 13422.356655878622, 0.034, -0.024, 0.99, 192.0, 0.0, 0.0, 0.0, 0.0, 0.0, 0.0, 0.0, 0.0, 0.0, 1.740937745074524E9, 0.0, 2025-03-02 19:49:05.074
208.0, 17949.993067978987, 4817.2479650077785, 0.0, 0.0, 0.0, 0.0, 0.0, 12237.267164858242, 0.034, -0.024, 0.99, 192.0, 0.0, 0.0, 0.0, 0.0, 0.0, 0.0, 0.0, 0.0, 0.0, 1.740937745074548E9, 0.0, 2025-03-02 19:49:05.074
209.0, 18198.142134921807, 4922.144701736534, 0.0, 0.0, 0.0, 0.0, 0.0, 9812.572278090987, 0.034, -0.024, 0.99, 192.0, 0.0, 0.0, 0.0, 0.0, 0.0, 0.0, 0.0, 0.0, 0.0, 1.740937745074573E9, 0.0, 2025-03-02 19:49:05.074
210.0, 18154.936212889697, 5287.930999747634, 0.0, 0.0, 0.0, 0.0, 0.0, 12246.833711485115, 0.034, -0.024, 0.99, 192.0, 0.0, 0.0, 0.0, 0.0, 0.0, 0.0, 0.0, 0.0, 0.0, 1.74093774513437E9, 0.0, 2025-03-02 19:49:05.134
211.0, 17898.53935224287, 5094.119023575667, 0.0, 0.0, 0.0, 0.0, 0.0, 14027.239564328143, 0.034, -0.024, 0.99, 192.0, 0.0, 0.0, 0.0, 0.0, 0.0, 0.0, 0.0, 0.0, 0.0, 1.74093774513445E9, 0.0, 2025-03-02 19:49:05.134
212.0, 17848.069113262787, 4862.934930674426, 0.0, 0.0, 0.0, 0.0, 0.0, 13411.404301095523, 0.028, -0.03, 0.992, 192.0, 0.0, 224.0, 255.0, 16.0, 31.0, 0.0, 0.0, 0.0, 0.0, 1.740937745134499E9, 0.0, 2025-03-02 19:49:05.134
213.0, 17915.37021581772, 4786.648426848463, 0.0, 0.0, 0.0, 0.0, 0.0, 12247.996002196789, 0.028, -0.03, 0.992, 192.0, 0.0, 0.0, 0.0, 0.0, 0.0, 0.0, 0.0, 0.0, 0.0, 1.740937745134547E9, 0.0, 2025-03-02 19:49:05.134
214.0, 18176.93032943372, 4885.040805940725, 0.0, 0.0, 0.0, 0.0, 0.0, 9797.12722267237, 0.028, -0.03, 0.992, 192.0, 0.0, 0.0, 0.0, 0.0, 0.0, 0.0, 0.0, 0.0, 0.0, 1.740937745134596E9, 0.0, 2025-03-02 19:49:05.134
215.0, 18141.860442383342, 5258.560807533361, 0.0, 0.0, 0.0, 0.0, 0.0, 12207.829917410603, 0.028, -0.03, 0.992, 192.0, 0.0, 0.0, 0.0, 0.0, 0.0, 0.0, 0.0, 0.0, 0.0, 1.740937745134634E9, 0.0, 2025-03-02 19:49:05.134
216.0, 17887.810514904322, 5072.124907031644, 0.0, 0.0, 0.0, 0.0, 0.0, 14019.81878516898, 0.028, -0.03, 0.992, 192.0, 0.0, 0.0, 0.0, 0.0, 0.0, 0.0, 0.0, 0.0, 0.0, 1.740937745134659E9, 0.0, 2025-03-02 19:49:05.134
217.0, 17830.411235143096, 4832.178930303923, 0.0, 0.0, 0.0, 0.0, 0.0, 13412.387777851556, 0.028, -0.03, 0.992, 192.0, 0.0, 0.0, 0.0, 0.0, 0.0, 0.0, 0.0, 0.0, 0.0, 1.740937745134684E9, 0.0, 2025-03-02 19:49:05.134
218.0, 17902.294445311363, 4761.078031191591, 0.0, 0.0, 0.0, 0.0, 0.0, 12272.538217608717, 0.028, -0.03, 0.992, 192.0, 0.0, 0.0, 0.0, 0.0, 0.0, 0.0, 0.0, 0.0, 0.0, 1.740937745134709E9, 0.0, 2025-03-02 19:49:05.134
219.0, 18163.429875782716, 4863.806648708182, 0.0, 0.0, 0.0, 0.0, 0.0, 9805.106795442915, 0.028, -0.03, 0.992, 192.0, 0.0, 0.0, 0.0, 0.0, 0.0, 0.0, 0.0, 0.0, 0.0, 1.740937745134734E9, 0.0, 2025-03-02 19:49:05.134
220.0, 18128.69526489917, 5228.251842051965, 0.0, 0.0, 0.0, 0.0, 0.0, 12161.539454643662, 0.028, -0.03, 0.992, 192.0, 0.0, 0.0, 0.0, 0.0, 0.0, 0.0, 0.0, 0.0, 0.0, 1.740937745134816E9, 0.0, 2025-03-02 19:49:05.134
221.0, 17883.49662822445, 5054.8023050787815, 0.0, 0.0, 0.0, 0.0, 0.0, 14010.833383897947, 0.036000000000000004, -0.028, 0.99, 192.0, 1.0, 32.0, 255.0, 32.0, 30.0, 240.0, 0.0, 0.0, 0.0, 1.740937745134841E9, 0.0, 2025-03-02 19:49:05.134
222.0, 17838.6590288471, 4830.927232614426, 0.0, 0.0, 0.0, 0.0, 0.0, 13429.33040014868, 0.036000000000000004, -0.028, 0.99, 192.0, 0.0, 0.0, 0.0, 0.0, 0.0, 0.0, 0.0, 0.0, 0.0, 1.740937745134868E9, 0.0, 2025-03-02 19:49:05.134
223.0, 17901.646244722157, 4759.3122433796225, 0.0, 0.0, 0.0, 0.0, 0.0, 12294.241761474821, 0.036000000000000004, -0.028, 0.99, 192.0, 0.0, 0.0, 0.0, 0.0, 0.0, 0.0, 0.0, 0.0, 0.0, 1.740937745134893E9, 0.0, 2025-03-02 19:49:05.134
224.0, 18153.058666355453, 4846.7746194332385, 0.0, 0.0, 0.0, 0.0, 0.0, 9802.536344830554, 0.036000000000000004, -0.028, 0.99, 192.0, 0.0, 0.0, 0.0, 0.0, 0.0, 0.0, 0.0, 0.0, 0.0, 1.740937745134918E9, 0.0, 2025-03-02 19:49:05.134
225.0, 18127.44356720967, 5214.12553955621, 0.0, 0.0, 0.0, 0.0, 0.0, 12143.367486401497, 0.036000000000000004, -0.028, 0.99, 192.0, 0.0, 0.0, 0.0, 0.0, 0.0, 0.0, 0.0, 0.0, 0.0, 1.740937745194723E9, 0.0, 2025-03-02 19:49:05.194
226.0, 17883.608386946726, 5058.110363258167, 0.0, 0.0, 0.0, 0.0, 0.0, 14021.450462514218, 0.036000000000000004, -0.028, 0.99, 192.0, 0.0, 0.0, 0.0, 0.0, 0.0, 0.0, 0.0, 0.0, 0.0, 1.740937745194796E9, 0.0, 2025-03-02 19:49:05.194
227.0, 17818.229534414953, 4811.235345749301, 0.0, 0.0, 0.0, 0.0, 0.0, 13416.3663883646, 0.036000000000000004, -0.028, 0.99, 192.0, 0.0, 0.0, 0.0, 0.0, 0.0, 0.0, 0.0, 0.0, 0.0, 1.740937745194825E9, 0.0, 2025-03-02 19:49:05.194
228.0, 17884.10012532474, 4736.848740202038, 0.0, 0.0, 0.0, 0.0, 0.0, 12297.750985354303, 0.036000000000000004, -0.028, 0.99, 192.0, 0.0, 0.0, 0.0, 0.0, 0.0, 0.0, 0.0, 0.0, 0.0, 1.740937745194851E9, 0.0, 2025-03-02 19:49:05.194
229.0, 18138.060645825943, 4823.506453455264, 0.0, 0.0, 0.0, 0.0, 0.0, 9821.334161917468, 0.036000000000000004, -0.028, 0.99, 192.0, 0.0, 0.0, 0.0, 0.0, 0.0, 0.0, 0.0, 0.0, 0.0, 1.740937745194876E9, 0.0, 2025-03-02 19:49:05.194
230.0, 18112.66906412471, 5196.244143991965, 0.0, 0.0, 0.0, 0.0, 0.0, 12141.02055323369, 0.036000000000000004, -0.028, 0.99, 192.0, 0.0, 0.0, 0.0, 0.0, 0.0, 0.0, 0.0, 0.0, 0.0, 1.740937745194902E9, 0.0, 2025-03-02 19:49:05.194
231.0, 17863.469465192495, 5031.623546078628, 0.0, 0.0, 0.0, 0.0, 0.0, 14015.482546744652, 0.036000000000000004, -0.026000000000000002, 0.996, 192.0, 1.0, 32.0, 255.0, 48.0, 31.0, 32.0, 0.0, 0.0, 0.0, 1.740937745194927E9, 0.0, 2025-03-02 19:49:05.194
232.0, 17804.662025530582, 4780.054662234147, 0.0, 0.0, 0.0, 0.0, 0.0, 13409.012664438804, 0.036000000000000004, -0.026000000000000002, 0.996, 192.0, 0.0, 0.0, 0.0, 0.0, 0.0, 0.0, 0.0, 0.0, 0.0, 1.740937745194953E9, 0.0, 2025-03-02 19:49:05.194
233.0, 17872.72308739699, 4712.261821301201, 0.0, 0.0, 0.0, 0.0, 0.0, 12329.91514562549, 0.036000000000000004, -0.026000000000000002, 0.996, 192.0, 0.0, 0.0, 0.0, 0.0, 0.0, 0.0, 0.0, 0.0, 0.0, 1.740937745194979E9, 0.0, 2025-03-02 19:49:05.194
234.0, 18114.434851936683, 4792.638694362485, 0.0, 0.0, 0.0, 0.0, 0.0, 9814.852156025428, 0.036000000000000004, -0.026000000000000002, 0.996, 192.0, 0.0, 0.0, 0.0, 0.0, 0.0, 0.0, 0.0, 0.0, 0.0, 1.740937745195014E9, 0.0, 2025-03-02 19:49:05.195
235.0, 18102.67783435319, 5179.636797861672, 0.0, 0.0, 0.0, 0.0, 0.0, 12106.375349327964, 0.036000000000000004, -0.026000000000000002, 0.996, 192.0, 0.0, 0.0, 0.0, 0.0, 0.0, 0.0, 0.0, 0.0, 0.0, 1.740937745195058E9, 0.0, 2025-03-02 19:49:05.195
236.0, 17844.470482405482, 5012.311638869243, 0.0, 0.0, 0.0, 0.0, 0.0, 14011.81686065398, 0.036000000000000004, -0.026000000000000002, 0.996, 192.0, 0.0, 0.0, 0.0, 0.0, 0.0, 0.0, 0.0, 0.0, 0.0, 1.74093774519511E9, 0.0, 2025-03-02 19:49:05.195
237.0, 17786.020670654856, 4761.905045736438, 0.0, 0.0, 0.0, 0.0, 0.0, 13405.324626603679, 0.036000000000000004, -0.026000000000000002, 0.996, 192.0, 0.0, 0.0, 0.0, 0.0, 0.0, 0.0, 0.0, 0.0, 0.0, 1.740937745195251E9, 0.0, 2025-03-02 19:49:05.195
238.0, 17873.14777054164, 4705.623353197975, 0.0, 0.0, 0.0, 0.0, 0.0, 12343.884985910057, 0.036000000000000004, -0.026000000000000002, 0.996, 192.0, 0.0, 0.0, 0.0, 0.0, 0.0, 0.0, 0.0, 0.0, 0.0, 1.740937745195316E9, 0.0, 2025-03-02 19:49:05.195
239.0, 18122.77205261851, 4798.606610132052, 0.0, 0.0, 0.0, 0.0, 0.0, 9855.822903612006, 0.036000000000000004, -0.026000000000000002, 0.996, 192.0, 0.0, 0.0, 0.0, 0.0, 0.0, 0.0, 0.0, 0.0, 0.0, 1.740937745195359E9, 0.0, 2025-03-02 19:49:05.195
240.0, 18086.249302178538, 5154.155809182622, 0.0, 0.0, 0.0, 0.0, 0.0, 12116.076006421568, 0.036000000000000004, -0.026000000000000002, 0.996, 192.0, 0.0, 0.0, 0.0, 0.0, 0.0, 0.0, 0.0, 0.0, 0.0, 1.740937745195385E9, 0.0, 2025-03-02 19:49:05.195
241.0, 17835.44037764554, 4984.729586211394, 0.0, 0.0, 0.0, 0.0, 0.0, 14047.043209915544, 0.042, -0.026000000000000002, 0.996, 192.0, 1.0, 80.0, 255.0, 48.0, 31.0, 32.0, 0.0, 0.0, 0.0, 1.740937745255288E9, 0.0, 2025-03-02 19:49:05.255
242.0, 17772.676679215037, 4732.2666325887, 0.0, 0.0, 0.0, 0.0, 0.0, 13461.628670886597, 0.042, -0.026000000000000002, 0.996, 192.0, 0.0, 0.0, 0.0, 0.0, 0.0, 0.0, 0.0, 0.0, 0.0, 1.740937745255363E9, 0.0, 2025-03-02 19:49:05.255
243.0, 17838.413159658096, 4654.706079328786, 0.0, 0.0, 0.0, 0.0, 0.0, 12390.041338210267, 0.042, -0.026000000000000002, 0.996, 192.0, 0.0, 0.0, 0.0, 0.0, 0.0, 0.0, 0.0, 0.0, 0.0, 1.74093774525542E9, 0.0, 2025-03-02 19:49:05.255
244.0, 18102.20844771963, 4743.956594938826, 0.0, 0.0, 0.0, 0.0, 0.0, 9863.444848471267, 0.042, -0.026000000000000002, 0.996, 192.0, 0.0, 0.0, 0.0, 0.0, 0.0, 0.0, 0.0, 0.0, 0.0, 1.740937745255465E9, 0.0, 2025-03-02 19:49:05.255
245.0, 18057.81788323139, 5118.795349454325, 0.0, 0.0, 0.0, 0.0, 0.0, 12080.357918781987, 0.042, -0.026000000000000002, 0.996, 192.0, 0.0, 0.0, 0.0, 0.0, 0.0, 0.0, 0.0, 0.0, 0.0, 1.740937745255491E9, 0.0, 2025-03-02 19:49:05.255
246.0, 17819.99532222692, 4970.916208138015, 0.0, 0.0, 0.0, 0.0, 0.0, 14035.532061521062, 0.042, -0.026000000000000002, 0.996, 192.0, 0.0, 0.0, 0.0, 0.0, 0.0, 0.0, 0.0, 0.0, 0.0, 1.740937745255516E9, 0.0, 2025-03-02 19:49:05.255
247.0, 17769.949766391488, 4744.023650172192, 0.0, 0.0, 0.0, 0.0, 0.0, 13447.94940327995, 0.042, -0.026000000000000002, 0.996, 192.0, 0.0, 0.0, 0.0, 0.0, 0.0, 0.0, 0.0, 0.0, 0.0, 1.740937745255541E9, 0.0, 2025-03-02 19:49:05.255
248.0, 17836.781482312857, 4667.603035879497, 0.0, 0.0, 0.0, 0.0, 0.0, 12399.093794714665, 0.042, -0.026000000000000002, 0.996, 192.0, 0.0, 0.0, 0.0, 0.0, 0.0, 0.0, 0.0, 0.0, 0.0, 1.740937745255566E9, 0.0, 2025-03-02 19:49:05.255
249.0, 18092.217217948106, 4738.659231502918, 0.0, 0.0, 0.0, 0.0, 0.0, 9859.600348424954, 0.042, -0.026000000000000002, 0.996, 192.0, 0.0, 0.0, 0.0, 0.0, 0.0, 0.0, 0.0, 0.0, 0.0, 1.740937745255591E9, 0.0, 2025-03-02 19:49:05.255
250.0, 18080.460200364614, 5130.6417740156385, 0.0, 0.0, 0.0, 0.0, 0.0, 12048.774903866639, 0.042, -0.026000000000000002, 0.996, 192.0, 0.0, 0.0, 0.0, 0.0, 0.0, 0.0, 0.0, 0.0, 0.0, 1.740937745255616E9, 0.0, 2025-03-02 19:49:05.255
251.0, 17838.10023523572, 4986.808298445738, 0.0, 0.0, 0.0, 0.0, 0.0, 14028.535965506551, 0.04, -0.026000000000000002, 0.994, 192.0, 1.0, 64.0, 255.0, 48.0, 31.0, 16.0, 0.0, 0.0, 0.0, 1.740937745255641E9, 0.0, 2025-03-02 19:49:05.255
252.0, 17776.14119960561, 4722.901251661927, 0.0, 0.0, 0.0, 0.0, 0.0, 13450.832778314683, 0.04, -0.026000000000000002, 0.994, 192.0, 0.0, 0.0, 0.0, 0.0, 0.0, 0.0, 0.0, 0.0, 0.0, 1.740937745255668E9, 0.0, 2025-03-02 19:49:05.255
253.0, 17837.34027592424, 4643.373744889945, 0.0, 0.0, 0.0, 0.0, 0.0, 12419.255068213353, 0.04, -0.026000000000000002, 0.994, 192.0, 0.0, 0.0, 0.0, 0.0, 0.0, 0.0, 0.0, 0.0, 0.0, 1.740937745255694E9, 0.0, 2025-03-02 19:49:05.255
254.0, 18084.170589944195, 4724.197652840335, 0.0, 0.0, 0.0, 0.0, 0.0, 9876.095935832971, 0.04, -0.026000000000000002, 0.994, 192.0, 0.0, 0.0, 0.0, 0.0, 0.0, 0.0, 0.0, 0.0, 0.0, 1.740937745255798E9, 0.0, 2025-03-02 19:49:05.255
255.0, 18081.086049209363, 5112.91684066258, 0.0, 0.0, 0.0, 0.0, 0.0, 12022.064569242546, 0.04, -0.026000000000000002, 0.994, 192.0, 0.0, 0.0, 0.0, 0.0, 0.0, 0.0, 0.0, 0.0, 0.0, 1.740937745255846E9, 0.0, 2025-03-02 19:49:05.255
0.0, 17839.553098625314, 4976.526495996296, 0.0, 0.0, 0.0, 0.0, 0.0, 14013.225020554664, 0.04, -0.026000000000000002, 0.994, 192.0, 0.0, 0.0, 0.0, 0.0, 0.0, 0.0, 0.0, 0.0, 0.0, 1.740937745314911E9, 0.0, 2025-03-02 19:49:05.314
1.0, 17786.870036944158, 4728.310373820112, 0.0, 0.0, 0.0, 0.0, 0.0, 13438.338153164168, 0.04, -0.026000000000000002, 0.994, 192.0, 0.0, 0.0, 0.0, 0.0, 0.0, 0.0, 0.0, 0.0, 0.0, 1.740937745314956E9, 0.0, 2025-03-02 19:49:05.314
2.0, 17850.95248829752, 4661.031623009637, 0.0, 0.0, 0.0, 0.0, 0.0, 12423.680713615504, 0.04, -0.026000000000000002, 0.994, 192.0, 0.0, 0.0, 0.0, 0.0, 0.0, 0.0, 0.0, 0.0, 0.0, 1.740937745314983E9, 0.0, 2025-03-02 19:49:05.314
3.0, 18101.068508752407, 4740.872054203994, 0.0, 0.0, 0.0, 0.0, 0.0, 9883.67317720332, 0.04, -0.026000000000000002, 0.994, 192.0, 0.0, 0.0, 0.0, 0.0, 0.0, 0.0, 0.0, 0.0, 0.0, 1.740937745315009E9, 0.0, 2025-03-02 19:49:05.315
4.0, 18088.39506964625, 5126.73021873596, 0.0, 0.0, 0.0, 0.0, 0.0, 11994.594275306974, 0.04, -0.026000000000000002, 0.994, 192.0, 0.0, 0.0, 0.0, 0.0, 0.0, 0.0, 0.0, 0.0, 0.0, 1.740937745315034E9, 0.0, 2025-03-02 19:49:05.315
5.0, 17844.91751729459, 4986.249504834354, 0.0, 0.0, 0.0, 0.0, 0.0, 13995.433031968241, 0.032, -0.026000000000000002, 0.996, 192.0, 1.0, 0.0, 255.0, 48.0, 31.0, 32.0, 0.0, 0.0, 0.0, 1.740937745315059E9, 0.0, 2025-03-02 19:49:05.315
6.0, 17799.09644116121, 4738.323955336089, 0.0, 0.0, 0.0, 0.0, 0.0, 13446.250670701345, 0.032, -0.026000000000000002, 0.996, 192.0, 0.0, 0.0, 0.0, 0.0, 0.0, 0.0, 0.0, 0.0, 0.0, 1.740937745315084E9, 0.0, 2025-03-02 19:49:05.315
7.0, 17864.430590204072, 4673.816820838073, 0.0, 0.0, 0.0, 0.0, 0.0, 12465.366717024652, 0.032, -0.026000000000000002, 0.996, 192.0, 0.0, 0.0, 0.0, 0.0, 0.0, 0.0, 0.0, 0.0, 0.0, 1.740937745315109E9, 0.0, 2025-03-02 19:49:05.315
8.0, 18110.031558278984, 4751.936167709371, 0.0, 0.0, 0.0, 0.0, 0.0, 9902.135718123403, 0.032, -0.026000000000000002, 0.996, 192.0, 0.0, 0.0, 0.0, 0.0, 0.0, 0.0, 0.0, 0.0, 0.0, 1.740937745315133E9, 0.0, 2025-03-02 19:49:05.315
9.0, 18104.711843098623, 5136.676745018572, 0.0, 0.0, 0.0, 0.0, 0.0, 11989.453374082254, 0.032, -0.026000000000000002, 0.996, 192.0, 0.0, 0.0, 0.0, 0.0, 0.0, 0.0, 0.0, 0.0, 0.0, 1.740937745315158E9, 0.0, 2025-03-02 19:49:05.315
10.0, 17857.166273256098, 4996.933638683991, 0.0, 0.0, 0.0, 0.0, 0.0, 14015.683712444748, 0.032, -0.026000000000000002, 0.996, 192.0, 0.0, 0.0, 0.0, 0.0, 0.0, 0.0, 0.0, 0.0, 0.0, 1.740937745315183E9, 0.0, 2025-03-02 19:49:05.315
11.0, 17793.888484703122, 4732.7807227111725, 0.0, 0.0, 0.0, 0.0, 0.0, 13448.351734680145, 0.032, -0.026000000000000002, 0.996, 192.0, 0.0, 0.0, 0.0, 0.0, 0.0, 0.0, 0.0, 0.0, 0.0, 1.740937745315228E9, 0.0, 2025-03-02 19:49:05.315
12.0, 17856.115741266698, 4659.981091020238, 0.0, 0.0, 0.0, 0.0, 0.0, 12480.297682320796, 0.032, -0.026000000000000002, 0.996, 192.0, 0.0, 0.0, 0.0, 0.0, 0.0, 0.0, 0.0, 0.0, 0.0, 1.740937745315275E9, 0.0, 2025-03-02 19:49:05.315
13.0, 18106.7235000996, 4734.524158778687, 0.0, 0.0, 0.0, 0.0, 0.0, 9923.235764889212, 0.032, -0.026000000000000002, 0.996, 192.0, 0.0, 0.0, 0.0, 0.0, 0.0, 0.0, 0.0, 0.0, 0.0, 1.74093774531532E9, 0.0, 2025-03-02 19:49:05.315
14.0, 18106.790555332966, 5115.330829063753, 0.0, 0.0, 0.0, 0.0, 0.0, 11966.453429037741, 0.038, -0.028, 0.992, 192.0, 1.0, 48.0, 255.0, 32.0, 31.0, 0.0, 0.0, 0.0, 0.0, 1.740937745315365E9, 0.0, 2025-03-02 19:49:05.315
15.0, 17856.115741266698, 4980.169830342511, 0.0, 0.0, 0.0, 0.0, 0.0, 14005.290151273031, 0.038, -0.028, 0.992, 192.0, 0.0, 0.0, 0.0, 0.0, 0.0, 0.0, 0.0, 0.0, 0.0, 1.740937745375177E9, 0.0, 2025-03-02 19:49:05.375
16.0, 17800.549304550805, 4739.307432092122, 0.0, 0.0, 0.0, 0.0, 0.0, 13451.480978903888, 0.038, -0.028, 0.992, 192.0, 0.0, 0.0, 0.0, 0.0, 0.0, 0.0, 0.0, 0.0, 0.0, 1.740937745375248E9, 0.0, 2025-03-02 19:49:05.375
17.0, 17861.703677380523, 4678.3542249625, 0.0, 0.0, 0.0, 0.0, 0.0, 12502.872944220657, 0.038, -0.028, 0.992, 192.0, 0.0, 0.0, 0.0, 0.0, 0.0, 0.0, 0.0, 0.0, 0.0, 1.740937745375276E9, 0.0, 2025-03-02 19:49:05.375
18.0, 18112.602008891346, 4740.93910943736, 0.0, 0.0, 0.0, 0.0, 0.0, 9932.668201049353, 0.038, -0.028, 0.992, 192.0, 0.0, 0.0, 0.0, 0.0, 0.0, 0.0, 0.0, 0.0, 0.0, 1.740937745375301E9, 0.0, 2025-03-02 19:49:05.375
19.0, 18113.831354836388, 5129.434779815052, 0.0, 0.0, 0.0, 0.0, 0.0, 11941.218309547701, 0.038, -0.028, 0.992, 192.0, 0.0, 0.0, 0.0, 0.0, 0.0, 0.0, 0.0, 0.0, 0.0, 1.740937745375326E9, 0.0, 2025-03-02 19:49:05.375
20.0, 17853.92527031008, 5012.222231891422, 0.0, 0.0, 0.0, 0.0, 0.0, 14028.379503295364, 0.038, -0.028, 0.992, 192.0, 0.0, 0.0, 0.0, 0.0, 0.0, 0.0, 0.0, 0.0, 0.0, 1.740937745375361E9, 0.0, 2025-03-02 19:49:05.375
21.0, 17799.208199883487, 4749.477475819287, 0.0, 0.0, 0.0, 0.0, 0.0, 13472.75983962534, 0.038, -0.028, 0.992, 192.0, 0.0, 0.0, 0.0, 0.0, 0.0, 0.0, 0.0, 0.0, 0.0, 1.740937745375409E9, 0.0, 2025-03-02 19:49:05.375
22.0, 17857.456845934015, 4669.279416713645, 0.0, 0.0, 0.0, 0.0, 0.0, 12520.530822340348, 0.038, -0.028, 0.992, 192.0, 0.0, 0.0, 0.0, 0.0, 0.0, 0.0, 0.0, 0.0, 0.0, 1.740937745375455E9, 0.0, 2025-03-02 19:49:05.375
23.0, 18102.43196516418, 4739.486246047765, 0.0, 0.0, 0.0, 0.0, 0.0, 9959.244425206713, 0.038, -0.028, 0.992, 192.0, 0.0, 0.0, 0.0, 0.0, 0.0, 0.0, 0.0, 0.0, 0.0, 1.7409377453755E9, 0.0, 2025-03-02 19:49:05.375
24.0, 18109.517468156515, 5122.036352400345, 0.0, 0.0, 0.0, 0.0, 0.0, 11934.825710633482, 0.036000000000000004, -0.024, 0.992, 192.0, 1.0, 32.0, 255.0, 64.0, 31.0, 0.0, 0.0, 0.0, 0.0, 1.740937745375552E9, 0.0, 2025-03-02 19:49:05.375
25.0, 17881.417915990107, 4996.128975883601, 0.0, 0.0, 0.0, 0.0, 0.0, 14022.143366592332, 0.036000000000000004, -0.024, 0.992, 192.0, 0.0, 0.0, 0.0, 0.0, 0.0, 0.0, 0.0, 0.0, 0.0, 1.740937745375589E9, 0.0, 2025-03-02 19:49:05.375
26.0, 17808.260656387887, 4735.12765587898, 0.0, 0.0, 0.0, 0.0, 0.0, 13472.826894858707, 0.036000000000000004, -0.024, 0.992, 192.0, 0.0, 0.0, 0.0, 0.0, 0.0, 0.0, 0.0, 0.0, 0.0, 1.740937745375615E9, 0.0, 2025-03-02 19:49:05.375
27.0, 17858.82030234579, 4669.949969047305, 0.0, 0.0, 0.0, 0.0, 0.0, 12551.487988410949, 0.036000000000000004, -0.024, 0.992, 192.0, 0.0, 0.0, 0.0, 0.0, 0.0, 0.0, 0.0, 0.0, 0.0, 1.74093774537564E9, 0.0, 2025-03-02 19:49:05.375
28.0, 18110.143317001264, 4733.294812833645, 0.0, 0.0, 0.0, 0.0, 0.0, 9967.49221891072, 0.036000000000000004, -0.024, 0.992, 192.0, 0.0, 0.0, 0.0, 0.0, 0.0, 0.0, 0.0, 0.0, 0.0, 1.740937745375665E9, 0.0, 2025-03-02 19:49:05.375
